##TITLE=No Description
##DATA TYPE=INFRARED SPECTRUM
##XUNITS=1/CM
##YUNITS=%T
399.452061  	82.012992 
400.888939  	84.437538 
402.325817  	86.815592 
403.762695  	87.205229 
405.199573  	88.183568 
406.636451  	88.189369 
408.073328  	88.107878 
409.510206  	87.982073 
410.947084  	86.281926 
412.383962  	86.383992 
413.820840  	87.317354 
415.257718  	87.227216 
416.694596  	87.268583 
418.131474  	85.557621 
419.568352  	85.163397 
421.005230  	87.534200 
422.442108  	86.704161 
423.878986  	85.383768 
425.315863  	86.411922 
426.752741  	87.206805 
428.189619  	87.091972 
429.626497  	86.668558 
431.063375  	86.482351 
432.500253  	86.682689 
433.937131  	86.954560 
435.374009  	87.550561 
436.810887  	87.210380 
438.247765  	86.594133 
439.684643  	87.496735 
441.121521  	87.820855 
442.558398  	86.726604 
443.995276  	86.126122 
445.432154  	85.721119 
446.869032  	85.927594 
448.305910  	86.563791 
449.742788  	86.564374 
451.179666  	86.770141 
452.616544  	86.729807 
454.053422  	86.411157 
455.490300  	87.044995 
456.927178  	87.395723 
458.364056  	86.837191 
459.800933  	87.070859 
461.237811  	87.391918 
462.674689  	87.158556 
464.111567  	86.792027 
465.548445  	86.558766 
466.985323  	86.570022 
468.422201  	86.679470 
469.859079  	86.546396 
471.295957  	86.171979 
472.732835  	86.091447 
474.169713  	86.585494 
475.606591  	86.976166 
477.043469  	87.180942 
478.480346  	87.126322 
479.917224  	86.727956 
481.354102  	86.591047 
482.790980  	86.866527 
484.227858  	87.040629 
485.664736  	86.945138 
487.101614  	86.770364 
488.538492  	86.747427 
489.975370  	86.804854 
491.412248  	86.891478 
492.849126  	86.976693 
494.286004  	86.707405 
495.722881  	86.494229 
497.159759  	86.553553 
498.596637  	86.382114 
500.033515  	86.404908 
501.470393  	86.612219 
502.907271  	86.444027 
504.344149  	86.642473 
505.781027  	86.930963 
507.217905  	86.521727 
508.654783  	86.233822 
510.091661  	86.385434 
511.528539  	86.613314 
512.965416  	86.749536 
514.402294  	86.608695 
515.839172  	86.646739 
517.276050  	86.850321 
518.712928  	86.721342 
520.149806  	86.856169 
521.586684  	87.177669 
523.023562  	87.060797 
524.460440  	86.843355 
525.897318  	86.670257 
527.334196  	86.457865 
528.771074  	86.475517 
530.207951  	86.713703 
531.644829  	86.909112 
533.081707  	86.884446 
534.518585  	86.885493 
535.955463  	86.997691 
537.392341  	86.904693 
538.829219  	86.781068 
540.266097  	86.818961 
541.702975  	86.852330 
543.139853  	86.864041 
544.576731  	86.748701 
546.013609  	86.639306 
547.450486  	86.741531 
548.887364  	86.739133 
550.324242  	86.736409 
551.761120  	86.884010 
553.197998  	86.813607 
554.634876  	86.660797 
556.071754  	86.708135 
557.508632  	86.846916 
558.945510  	86.990476 
560.382388  	87.028990 
561.819266  	86.983453 
563.256144  	86.887342 
564.693021  	86.779517 
566.129899  	86.917352 
567.566777  	87.143872 
569.003655  	87.205046 
570.440533  	87.299750 
571.877411  	87.326284 
573.314289  	87.170856 
574.751167  	87.052288 
576.188045  	87.033079 
577.624923  	87.114127 
579.061801  	87.146752 
580.498679  	87.008814 
581.935556  	86.950915 
583.372434  	87.030761 
584.809312  	87.078973 
586.246190  	87.105262 
587.683068  	87.158717 
589.119946  	87.250737 
590.556824  	87.282767 
591.993702  	87.257228 
593.430580  	87.305173 
594.867458  	87.313815 
596.304336  	87.286345 
597.741214  	87.356814 
599.178091  	87.419665 
600.614969  	87.436839 
602.051847  	87.410459 
603.488725  	87.315028 
604.925603  	87.264292 
606.362481  	87.244833 
607.799359  	87.297318 
609.236237  	87.376272 
610.673115  	87.413514 
612.109993  	87.440098 
613.546871  	87.461549 
614.983749  	87.443977 
616.420626  	87.507056 
617.857504  	87.564989 
619.294382  	87.575083 
620.731260  	87.617244 
622.168138  	87.639609 
623.605016  	87.655750 
625.041894  	87.717531 
626.478772  	87.717215 
627.915650  	87.695370 
629.352528  	87.671893 
630.789406  	87.640639 
632.226284  	87.724345 
633.663161  	87.768295 
635.100039  	87.760293 
636.536917  	87.846585 
637.973795  	87.930840 
639.410673  	87.881135 
640.847551  	87.821500 
642.284429  	87.824005 
643.721307  	87.878112 
645.158185  	87.909139 
646.595063  	87.928792 
648.031941  	87.987476 
649.468819  	88.002715 
650.905696  	88.040989 
652.342574  	88.122440 
653.779452  	88.176324 
655.216330  	88.176026 
656.653208  	88.131330 
658.090086  	88.177495 
659.526964  	88.308268 
660.963842  	88.263227 
662.400720  	88.223067 
663.837598  	88.389599 
665.274476  	88.518198 
666.711354  	88.541595 
668.148231  	88.472106 
669.585109  	88.372277 
671.021987  	88.360428 
672.458865  	88.403014 
673.895743  	88.511002 
675.332621  	88.622889 
676.769499  	88.657447 
678.206377  	88.652188 
679.643255  	88.688702 
681.080133  	88.691979 
682.517011  	88.666490 
683.953889  	88.669411 
685.390766  	88.705339 
686.827644  	88.777290 
688.264522  	88.816309 
689.701400  	88.787412 
691.138278  	88.853772 
692.575156  	88.966193 
694.012034  	89.013586 
695.448912  	89.029672 
696.885790  	89.019415 
698.322668  	89.022694 
699.759546  	89.096366 
701.196424  	89.161611 
702.633301  	89.169209 
704.070179  	89.154725 
705.507057  	89.123640 
706.943935  	89.134015 
708.380813  	89.222367 
709.817691  	89.309272 
711.254569  	89.359193 
712.691447  	89.345026 
714.128325  	89.269114 
715.565203  	89.273602 
717.002081  	89.322551 
718.438959  	89.309775 
719.875837  	89.331535 
721.312714  	89.386004 
722.749592  	89.411132 
724.186470  	89.492014 
725.623348  	89.602552 
727.060226  	89.595658 
728.497104  	89.551572 
729.933982  	89.533266 
731.370860  	89.568677 
732.807738  	89.618871 
734.244616  	89.575180 
735.681494  	89.539475 
737.118372  	89.610121 
738.555249  	89.646182 
739.992127  	89.610871 
741.429005  	89.586005 
742.865883  	89.607126 
744.302761  	89.628979 
745.739639  	89.628999 
747.176517  	89.689993 
748.613395  	89.751497 
750.050273  	89.732698 
751.487151  	89.755395 
752.924029  	89.790668 
754.360907  	89.742086 
755.797784  	89.705540 
757.234662  	89.717477 
758.671540  	89.738498 
760.108418  	89.754659 
761.545296  	89.791777 
762.982174  	89.874701 
764.419052  	89.865425 
765.855930  	89.773985 
767.292808  	89.831479 
768.729686  	89.964343 
770.166564  	89.994991 
771.603442  	89.983191 
773.040319  	89.983129 
774.477197  	89.997088 
775.914075  	90.008409 
777.350953  	90.019566 
778.787831  	90.090217 
780.224709  	90.181094 
781.661587  	90.231437 
783.098465  	90.222345 
784.535343  	90.168082 
785.972221  	90.203460 
787.409099  	90.292591 
788.845977  	90.286209 
790.282854  	90.299191 
791.719732  	90.360147 
793.156610  	90.349699 
794.593488  	90.342232 
796.030366  	90.374423 
797.467244  	90.382631 
798.904122  	90.367555 
800.341000  	90.360012 
801.777878  	90.414073 
803.214756  	90.476207 
804.651634  	90.475280 
806.088512  	90.494264 
807.525389  	90.543444 
808.962267  	90.584703 
810.399145  	90.609321 
811.836023  	90.555806 
813.272901  	90.528160 
814.709779  	90.627388 
816.146657  	90.696629 
817.583535  	90.681852 
819.020413  	90.668568 
820.457291  	90.672175 
821.894169  	90.715952 
823.331047  	90.768826 
824.767924  	90.787418 
826.204802  	90.819806 
827.641680  	90.879179 
829.078558  	90.942286 
830.515436  	90.983705 
831.952314  	90.997706 
833.389192  	91.048786 
834.826070  	91.114923 
836.262948  	91.133959 
837.699826  	91.187714 
839.136704  	91.300393 
840.573582  	91.358210 
842.010459  	91.357477 
843.447337  	91.400025 
844.884215  	91.479808 
846.321093  	91.529255 
847.757971  	91.589222 
849.194849  	91.671062 
850.631727  	91.703604 
852.068605  	91.732401 
853.505483  	91.783369 
854.942361  	91.808507 
856.379239  	91.874704 
857.816117  	91.964190 
859.252994  	91.986970 
860.689872  	92.010467 
862.126750  	92.047485 
863.563628  	92.085583 
865.000506  	92.191970 
866.437384  	92.285372 
867.874262  	92.302687 
869.311140  	92.335539 
870.748018  	92.398834 
872.184896  	92.457413 
873.621774  	92.492531 
875.058652  	92.528913 
876.495529  	92.609562 
877.932407  	92.654992 
879.369285  	92.668032 
880.806163  	92.743194 
882.243041  	92.805811 
883.679919  	92.853768 
885.116797  	92.953220 
886.553675  	93.009607 
887.990553  	93.034528 
889.427431  	93.084462 
890.864309  	93.096152 
892.301187  	93.136733 
893.738064  	93.258197 
895.174942  	93.336218 
896.611820  	93.343810 
898.048698  	93.368848 
899.485576  	93.449436 
900.922454  	93.555062 
902.359332  	93.638959 
903.796210  	93.693700 
905.233088  	93.722862 
906.669966  	93.736303 
908.106844  	93.763693 
909.543722  	93.816662 
910.980599  	93.879505 
912.417477  	93.916250 
913.854355  	93.932378 
915.291233  	93.974217 
916.728111  	94.027951 
918.164989  	94.072413 
919.601867  	94.117965 
921.038745  	94.152905 
922.475623  	94.181151 
923.912501  	94.216840 
925.349379  	94.266546 
926.786257  	94.309402 
928.223134  	94.302046 
929.660012  	94.308175 
931.096890  	94.376922 
932.533768  	94.412434 
933.970646  	94.405245 
935.407524  	94.417144 
936.844402  	94.440078 
938.281280  	94.480662 
939.718158  	94.507874 
941.155036  	94.489490 
942.591914  	94.491156 
944.028792  	94.520161 
945.465670  	94.529310 
946.902547  	94.536877 
948.339425  	94.553766 
949.776303  	94.545116 
951.213181  	94.522191 
952.650059  	94.561349 
954.086937  	94.625924 
955.523815  	94.609659 
956.960693  	94.586376 
958.397571  	94.609603 
959.834449  	94.588128 
961.271327  	94.552018 
962.708205  	94.549827 
964.145082  	94.548109 
965.581960  	94.578842 
967.018838  	94.628068 
968.455716  	94.625260 
969.892594  	94.579285 
971.329472  	94.533483 
972.766350  	94.536780 
974.203228  	94.573832 
975.640106  	94.573372 
977.076984  	94.560393 
978.513862  	94.567764 
979.950740  	94.555421 
981.387617  	94.547382 
982.824495  	94.585916 
984.261373  	94.590496 
985.698251  	94.515731 
987.135129  	94.485205 
988.572007  	94.506450 
990.008885  	94.449715 
991.445763  	94.398061 
992.882641  	94.428570 
994.319519  	94.403755 
995.756397  	94.330102 
997.193275  	94.309070 
998.630152  	94.314490 
1000.067030  	94.313539 
1001.503908  	94.269325 
1002.940786  	94.207835 
1004.377664  	94.219562 
1005.814542  	94.226431 
1007.251420  	94.156201 
1008.688298  	94.105477 
1010.125176  	94.086523 
1011.562054  	94.035784 
1012.998932  	93.982504 
1014.435810  	93.965667 
1015.872687  	93.942086 
1017.309565  	93.872771 
1018.746443  	93.806517 
1020.183321  	93.773176 
1021.620199  	93.738379 
1023.057077  	93.691829 
1024.493955  	93.637874 
1025.930833  	93.606643 
1027.367711  	93.602765 
1028.804589  	93.546319 
1030.241467  	93.461032 
1031.678345  	93.423565 
1033.115222  	93.376733 
1034.552100  	93.317350 
1035.988978  	93.306893 
1037.425856  	93.288045 
1038.862734  	93.216852 
1040.299612  	93.146355 
1041.736490  	93.104540 
1043.173368  	93.055445 
1044.610246  	92.991735 
1046.047124  	92.961291 
1047.484002  	92.936935 
1048.920880  	92.875058 
1050.357757  	92.827074 
1051.794635  	92.790902 
1053.231513  	92.748015 
1054.668391  	92.727641 
1056.105269  	92.684590 
1057.542147  	92.643545 
1058.979025  	92.671076 
1060.415903  	92.671743 
1061.852781  	92.621465 
1063.289659  	92.586408 
1064.726537  	92.541115 
1066.163415  	92.526879 
1067.600292  	92.563977 
1069.037170  	92.556117 
1070.474048  	92.529347 
1071.910926  	92.526381 
1073.347804  	92.504057 
1074.784682  	92.494196 
1076.221560  	92.493010 
1077.658438  	92.449548 
1079.095316  	92.426325 
1080.532194  	92.450664 
1081.969072  	92.457410 
1083.405950  	92.441080 
1084.842827  	92.423979 
1086.279705  	92.413421 
1087.716583  	92.409721 
1089.153461  	92.373832 
1090.590339  	92.310867 
1092.027217  	92.277834 
1093.464095  	92.266902 
1094.900973  	92.255169 
1096.337851  	92.233643 
1097.774729  	92.176744 
1099.211607  	92.122662 
1100.648485  	92.111758 
1102.085362  	92.093667 
1103.522240  	92.033936 
1104.959118  	91.960693 
1106.395996  	91.908714 
1107.832874  	91.877879 
1109.269752  	91.846769 
1110.706630  	91.822110 
1112.143508  	91.784121 
1113.580386  	91.710157 
1115.017264  	91.648248 
1116.454142  	91.601537 
1117.891020  	91.547382 
1119.327897  	91.495495 
1120.764775  	91.408570 
1122.201653  	91.321574 
1123.638531  	91.287635 
1125.075409  	91.214134 
1126.512287  	91.110796 
1127.949165  	91.066471 
1129.386043  	91.022285 
1130.822921  	90.969583 
1132.259799  	90.940878 
1133.696677  	90.887229 
1135.133555  	90.826566 
1136.570432  	90.757757 
1138.007310  	90.653973 
1139.444188  	90.585377 
1140.881066  	90.535057 
1142.317944  	90.456526 
1143.754822  	90.404189 
1145.191700  	90.343276 
1146.628578  	90.249305 
1148.065456  	90.192835 
1149.502334  	90.135968 
1150.939212  	90.036958 
1152.376090  	89.940895 
1153.812967  	89.853891 
1155.249845  	89.782143 
1156.686723  	89.729842 
1158.123601  	89.671007 
1159.560479  	89.601499 
1160.997357  	89.518459 
1162.434235  	89.453204 
1163.871113  	89.428718 
1165.307991  	89.391192 
1166.744869  	89.342507 
1168.181747  	89.296964 
1169.618625  	89.214856 
1171.055502  	89.146685 
1172.492380  	89.123679 
1173.929258  	89.069486 
1175.366136  	88.990099 
1176.803014  	88.938977 
1178.239892  	88.898073 
1179.676770  	88.847689 
1181.113648  	88.799390 
1182.550526  	88.765143 
1183.987404  	88.735238 
1185.424282  	88.688458 
1186.861160  	88.615336 
1188.298038  	88.534956 
1189.734915  	88.487123 
1191.171793  	88.450736 
1192.608671  	88.387490 
1194.045549  	88.345078 
1195.482427  	88.322475 
1196.919305  	88.256766 
1198.356183  	88.181821 
1199.793061  	88.133312 
1201.229939  	88.075768 
1202.666817  	88.009587 
1204.103695  	87.963743 
1205.540573  	87.931796 
1206.977450  	87.886001 
1208.414328  	87.832306 
1209.851206  	87.779667 
1211.288084  	87.711842 
1212.724962  	87.663802 
1214.161840  	87.641265 
1215.598718  	87.583921 
1217.035596  	87.530095 
1218.472474  	87.515048 
1219.909352  	87.477049 
1221.346230  	87.411864 
1222.783108  	87.349164 
1224.219985  	87.308475 
1225.656863  	87.300701 
1227.093741  	87.276773 
1228.530619  	87.231538 
1229.967497  	87.193511 
1231.404375  	87.142039 
1232.841253  	87.098117 
1234.278131  	87.080221 
1235.715009  	87.057414 
1237.151887  	87.029836 
1238.588765  	87.003947 
1240.025643  	86.984229 
1241.462520  	86.967967 
1242.899398  	86.943107 
1244.336276  	86.930925 
1245.773154  	86.919982 
1247.210032  	86.892007 
1248.646910  	86.878626 
1250.083788  	86.871010 
1251.520666  	86.853588 
1252.957544  	86.835471 
1254.394422  	86.813457 
1255.831300  	86.806715 
1257.268178  	86.798196 
1258.705055  	86.764163 
1260.141933  	86.750782 
1261.578811  	86.757189 
1263.015689  	86.753758 
1264.452567  	86.752796 
1265.889445  	86.742910 
1267.326323  	86.722889 
1268.763201  	86.709432 
1270.200079  	86.701729 
1271.636957  	86.702022 
1273.073835  	86.699870 
1274.510713  	86.693817 
1275.947590  	86.688523 
1277.384468  	86.679761 
1278.821346  	86.683359 
1280.258224  	86.680514 
1281.695102  	86.655053 
1283.131980  	86.655823 
1284.568858  	86.683406 
1286.005736  	86.683427 
1287.442614  	86.646702 
1288.879492  	86.629658 
1290.316370  	86.667770 
1291.753248  	86.698295 
1293.190125  	86.697251 
1294.627003  	86.701539 
1296.063881  	86.701003 
1297.500759  	86.722947 
1298.937637  	86.767370 
1300.374515  	86.770596 
1301.811393  	86.778801 
1303.248271  	86.812533 
1304.685149  	86.820994 
1306.122027  	86.812311 
1307.558905  	86.816283 
1308.995783  	86.836664 
1310.432660  	86.839945 
1311.869538  	86.819083 
1313.306416  	86.846602 
1314.743294  	86.891648 
1316.180172  	86.887637 
1317.617050  	86.886510 
1319.053928  	86.891205 
1320.490806  	86.905155 
1321.927684  	86.956221 
1323.364562  	86.986483 
1324.801440  	86.994463 
1326.238318  	87.003906 
1327.675195  	87.005426 
1329.112073  	87.012579 
1330.548951  	87.015955 
1331.985829  	87.009187 
1333.422707  	87.020390 
1334.859585  	87.018950 
1336.296463  	87.015935 
1337.733341  	87.007138 
1339.170219  	86.972510 
1340.607097  	86.982003 
1342.043975  	87.036840 
1343.480853  	87.041963 
1344.917730  	87.062244 
1346.354608  	87.106019 
1347.791486  	87.110742 
1349.228364  	87.089319 
1350.665242  	87.089885 
1352.102120  	87.107469 
1353.538998  	87.105061 
1354.975876  	87.075498 
1356.412754  	87.097921 
1357.849632  	87.143615 
1359.286510  	87.157327 
1360.723388  	87.137379 
1362.160265  	87.112210 
1363.597143  	87.124876 
1365.034021  	87.167304 
1366.470899  	87.178230 
1367.907777  	87.181205 
1369.344655  	87.203605 
1370.781533  	87.238052 
1372.218411  	87.239363 
1373.655289  	87.206278 
1375.092167  	87.220281 
1376.529045  	87.265131 
1377.965923  	87.275700 
1379.402800  	87.320573 
1380.839678  	87.393781 
1382.276556  	87.464029 
1383.713434  	87.534137 
1385.150312  	87.544507 
1386.587190  	87.552052 
1388.024068  	87.625749 
1389.460946  	87.696448 
1390.897824  	87.737080 
1392.334702  	87.765625 
1393.771580  	87.796174 
1395.208458  	87.832771 
1396.645335  	87.859083 
1398.082213  	87.869815 
1399.519091  	87.928303 
1400.955969  	87.991256 
1402.392847  	88.026222 
1403.829725  	88.018898 
1405.266603  	88.025929 
1406.703481  	88.089367 
1408.140359  	88.124748 
1409.577237  	88.120405 
1411.014115  	88.112890 
1412.450993  	88.104040 
1413.887871  	88.140370 
1415.324748  	88.135800 
1416.761626  	88.099127 
1418.198504  	88.187184 
1419.635382  	88.286055 
1421.072260  	88.224830 
1422.509138  	88.147209 
1423.946016  	88.135516 
1425.382894  	88.220312 
1426.819772  	88.264819 
1428.256650  	88.249318 
1429.693528  	88.258250 
1431.130406  	88.265095 
1432.567283  	88.219743 
1434.004161  	88.213518 
1435.441039  	88.237354 
1436.877917  	88.278662 
1438.314795  	88.314932 
1439.751673  	88.292186 
1441.188551  	88.299912 
1442.625429  	88.325712 
1444.062307  	88.311977 
1445.499185  	88.292768 
1446.936063  	88.291453 
1448.372941  	88.338084 
1449.809818  	88.364579 
1451.246696  	88.348882 
1452.683574  	88.330621 
1454.120452  	88.357926 
1455.557330  	88.431793 
1456.994208  	88.471333 
1458.431086  	88.408190 
1459.867964  	88.425587 
1461.304842  	88.474079 
1462.741720  	88.469721 
1464.178598  	88.471357 
1465.615476  	88.459377 
1467.052353  	88.482193 
1468.489231  	88.553670 
1469.926109  	88.586257 
1471.362987  	88.579452 
1472.799865  	88.597731 
1474.236743  	88.571720 
1475.673621  	88.515586 
1477.110499  	88.530649 
1478.547377  	88.586228 
1479.984255  	88.622475 
1481.421133  	88.617901 
1482.858011  	88.614864 
1484.294888  	88.630883 
1485.731766  	88.642355 
1487.168644  	88.638493 
1488.605522  	88.575550 
1490.042400  	88.504070 
1491.479278  	88.545345 
1492.916156  	88.553683 
1494.353034  	88.560363 
1495.789912  	88.566768 
1497.226790  	88.525648 
1498.663668  	88.530841 
1500.100546  	88.549748 
1501.537423  	88.515783 
1502.974301  	88.517191 
1504.411179  	88.563552 
1505.848057  	88.551971 
1507.284935  	88.350034 
1508.721813  	88.304470 
1510.158691  	88.309774 
1511.595569  	88.341508 
1513.032447  	88.360687 
1514.469325  	88.334887 
1515.906203  	88.305619 
1517.343081  	88.314436 
1518.779958  	88.331808 
1520.216836  	88.326060 
1521.653714  	88.300738 
1523.090592  	88.260251 
1524.527470  	88.187948 
1525.964348  	88.135894 
1527.401226  	88.095279 
1528.838104  	88.084303 
1530.274982  	88.082200 
1531.711860  	88.037076 
1533.148738  	87.973849 
1534.585616  	87.909312 
1536.022493  	87.856945 
1537.459371  	87.875836 
1538.896249  	87.897453 
1540.333127  	87.794505 
1541.770005  	87.704064 
1543.206883  	87.534502 
1544.643761  	87.393334 
1546.080639  	87.392670 
1547.517517  	87.305045 
1548.954395  	87.230034 
1550.391273  	87.117720 
1551.828151  	87.073165 
1553.265028  	87.050639 
1554.701906  	86.940328 
1556.138784  	86.827591 
1557.575662  	86.807396 
1559.012540  	86.645015 
1560.449418  	86.573606 
1561.886296  	86.477938 
1563.323174  	86.409905 
1564.760052  	86.392646 
1566.196930  	86.293349 
1567.633808  	86.207419 
1569.070686  	86.173577 
1570.507563  	86.106375 
1571.944441  	85.991289 
1573.381319  	85.885780 
1574.818197  	85.855928 
1576.255075  	85.891576 
1577.691953  	85.767717 
1579.128831  	85.629629 
1580.565709  	85.597417 
1582.002587  	85.557137 
1583.439465  	85.520813 
1584.876343  	85.480343 
1586.313221  	85.389565 
1587.750098  	85.384650 
1589.186976  	85.390719 
1590.623854  	85.277970 
1592.060732  	85.169395 
1593.497610  	85.137294 
1594.934488  	85.175871 
1596.371366  	85.198691 
1597.808244  	85.171419 
1599.245122  	85.239055 
1600.682000  	85.340215 
1602.118878  	85.333361 
1603.555756  	85.304214 
1604.992633  	85.297089 
1606.429511  	85.332997 
1607.866389  	85.382644 
1609.303267  	85.368208 
1610.740145  	85.445597 
1612.177023  	85.588314 
1613.613901  	85.633780 
1615.050779  	85.712988 
1616.487657  	85.836614 
1617.924535  	85.946870 
1619.361413  	86.001134 
1620.798291  	85.996482 
1622.235168  	86.086813 
1623.672046  	86.316553 
1625.108924  	86.405384 
1626.545802  	86.468563 
1627.982680  	86.616752 
1629.419558  	86.773412 
1630.856436  	86.949807 
1632.293314  	87.084870 
1633.730192  	87.194180 
1635.167070  	87.438456 
1636.603948  	87.676908 
1638.040826  	87.749583 
1639.477703  	87.818813 
1640.914581  	87.947491 
1642.351459  	88.161481 
1643.788337  	88.380107 
1645.225215  	88.585168 
1646.662093  	88.806379 
1648.098971  	88.960570 
1649.535849  	89.083942 
1650.972727  	89.245520 
1652.409605  	89.463233 
1653.846483  	89.811576 
1655.283361  	89.827963 
1656.720239  	89.852887 
1658.157116  	90.162000 
1659.593994  	90.379574 
1661.030872  	90.514983 
1662.467750  	90.667753 
1663.904628  	90.781058 
1665.341506  	90.963541 
1666.778384  	91.175616 
1668.215262  	91.305881 
1669.652140  	91.408314 
1671.089018  	91.542751 
1672.525896  	91.688329 
1673.962774  	91.847295 
1675.399651  	91.958382 
1676.836529  	92.124174 
1678.273407  	92.310441 
1679.710285  	92.417162 
1681.147163  	92.517539 
1682.584041  	92.659510 
1684.020919  	92.750301 
1685.457797  	92.802083 
1686.894675  	92.861091 
1688.331553  	92.972135 
1689.768431  	93.107511 
1691.205309  	93.207908 
1692.642186  	93.328671 
1694.079064  	93.515482 
1695.515942  	93.724695 
1696.952820  	93.802178 
1698.389698  	93.776068 
1699.826576  	93.884420 
1701.263454  	94.038209 
1702.700332  	94.062765 
1704.137210  	94.160763 
1705.574088  	94.258084 
1707.010966  	94.328273 
1708.447844  	94.487028 
1709.884721  	94.592594 
1711.321599  	94.718803 
1712.758477  	94.876995 
1714.195355  	94.951614 
1715.632233  	95.074811 
1717.069111  	95.165892 
1718.505989  	95.174105 
1719.942867  	95.341944 
1721.379745  	95.404191 
1722.816623  	95.492697 
1724.253501  	95.706785 
1725.690379  	95.878309 
1727.127256  	96.030599 
1728.564134  	96.115067 
1730.001012  	96.132357 
1731.437890  	96.209788 
1732.874768  	96.304009 
1734.311646  	96.330361 
1735.748524  	96.435776 
1737.185402  	96.499206 
1738.622280  	96.647621 
1740.059158  	96.783136 
1741.496036  	96.793304 
1742.932914  	96.837513 
1744.369791  	96.894874 
1745.806669  	96.972672 
1747.243547  	97.072047 
1748.680425  	97.072247 
1750.117303  	97.118370 
1751.554181  	97.192572 
1752.991059  	97.255636 
1754.427937  	97.394212 
1755.864815  	97.440164 
1757.301693  	97.413169 
1758.738571  	97.504109 
1760.175449  	97.560123 
1761.612326  	97.582299 
1763.049204  	97.647445 
1764.486082  	97.650750 
1765.922960  	97.673367 
1767.359838  	97.720211 
1768.796716  	97.744702 
1770.233594  	97.812054 
1771.670472  	97.841264 
1773.107350  	97.828844 
1774.544228  	97.881038 
1775.981106  	97.920252 
1777.417984  	97.976147 
1778.854861  	98.008702 
1780.291739  	98.029821 
1781.728617  	98.090038 
1783.165495  	98.123964 
1784.602373  	98.127798 
1786.039251  	98.152993 
1787.476129  	98.184068 
1788.913007  	98.241196 
1790.349885  	98.256968 
1791.786763  	98.275113 
1793.223641  	98.345208 
1794.660519  	98.272241 
1796.097396  	98.252693 
1797.534274  	98.327669 
1798.971152  	98.316113 
1800.408030  	98.336572 
1801.844908  	98.339054 
1803.281786  	98.307077 
1804.718664  	98.397726 
1806.155542  	98.434385 
1807.592420  	98.417222 
1809.029298  	98.451848 
1810.466176  	98.430121 
1811.903054  	98.413865 
1813.339931  	98.446171 
1814.776809  	98.468517 
1816.213687  	98.500043 
1817.650565  	98.473051 
1819.087443  	98.430312 
1820.524321  	98.452557 
1821.961199  	98.479632 
1823.398077  	98.511290 
1824.834955  	98.502129 
1826.271833  	98.454299 
1827.708711  	98.473572 
1829.145589  	98.468685 
1830.582466  	98.463061 
1832.019344  	98.498594 
1833.456222  	98.480507 
1834.893100  	98.527551 
1836.329978  	98.569205 
1837.766856  	98.511135 
1839.203734  	98.565829 
1840.640612  	98.631661 
1842.077490  	98.624292 
1843.514368  	98.676512 
1844.951246  	98.613877 
1846.388124  	98.526964 
1847.825001  	98.526590 
1849.261879  	98.537253 
1850.698757  	98.623190 
1852.135635  	98.677929 
1853.572513  	98.617979 
1855.009391  	98.662150 
1856.446269  	98.675666 
1857.883147  	98.596241 
1859.320025  	98.555743 
1860.756903  	98.498255 
1862.193781  	98.506304 
1863.630659  	98.560503 
1865.067536  	98.550493 
1866.504414  	98.542331 
1867.941292  	98.531261 
1869.378170  	98.548147 
1870.815048  	98.536546 
1872.251926  	98.511536 
1873.688804  	98.622220 
1875.125682  	98.618005 
1876.562560  	98.523556 
1877.999438  	98.665392 
1879.436316  	98.722835 
1880.873194  	98.612687 
1882.310072  	98.568810 
1883.746949  	98.503425 
1885.183827  	98.545441 
1886.620705  	98.648728 
1888.057583  	98.649923 
1889.494461  	98.708938 
1890.931339  	98.703369 
1892.368217  	98.637205 
1893.805095  	98.649162 
1895.241973  	98.661911 
1896.678851  	98.721932 
1898.115729  	98.714249 
1899.552607  	98.548566 
1900.989484  	98.582109 
1902.426362  	98.602753 
1903.863240  	98.550397 
1905.300118  	98.588266 
1906.736996  	98.587490 
1908.173874  	98.585257 
1909.610752  	98.618025 
1911.047630  	98.565793 
1912.484508  	98.529438 
1913.921386  	98.592555 
1915.358264  	98.617794 
1916.795142  	98.642791 
1918.232019  	98.598783 
1919.668897  	98.630424 
1921.105775  	98.701726 
1922.542653  	98.606845 
1923.979531  	98.548961 
1925.416409  	98.551163 
1926.853287  	98.623587 
1928.290165  	98.640894 
1929.727043  	98.626892 
1931.163921  	98.579350 
1932.600799  	98.542852 
1934.037677  	98.470032 
1935.474554  	98.442284 
1936.911432  	98.402418 
1938.348310  	98.331756 
1939.785188  	98.470889 
1941.222066  	98.543755 
1942.658944  	98.372631 
1944.095822  	98.372798 
1945.532700  	98.528440 
1946.969578  	98.605099 
1948.406456  	98.634924 
1949.843334  	98.502216 
1951.280212  	98.606160 
1952.717089  	98.613956 
1954.153967  	98.591149 
1955.590845  	98.660352 
1957.027723  	98.567998 
1958.464601  	98.586878 
1959.901479  	98.676162 
1961.338357  	98.557567 
1962.775235  	98.667678 
1964.212113  	98.769983 
1965.648991  	98.599995 
1967.085869  	98.529440 
1968.522747  	98.526588 
1969.959624  	98.620325 
1971.396502  	98.661754 
1972.833380  	98.583077 
1974.270258  	98.779648 
1975.707136  	98.898977 
1977.144014  	98.762637 
1978.580892  	98.760663 
1980.017770  	98.715352 
1981.454648  	98.713763 
1982.891526  	98.762366 
1984.328404  	98.697995 
1985.765282  	98.673291 
1987.202159  	98.581286 
1988.639037  	98.517418 
1990.075915  	98.765216 
1991.512793  	98.635758 
1992.949671  	98.322753 
1994.386549  	98.347717 
1995.823427  	98.334770 
1997.260305  	98.277589 
1998.697183  	98.164004 
2000.134061  	97.962374 
2001.570939  	98.150659 
2003.007817  	98.233151 
2004.444694  	98.057576 
2005.881572  	98.219076 
2007.318450  	98.484011 
2008.755328  	98.631863 
2010.192206  	98.411851 
2011.629084  	98.098274 
2013.065962  	98.231149 
2014.502840  	98.184644 
2015.939718  	98.095181 
2017.376596  	98.353215 
2018.813474  	98.390007 
2020.250352  	98.625599 
2021.687229  	98.771255 
2023.124107  	98.322699 
2024.560985  	98.368263 
2025.997863  	98.571470 
2027.434741  	98.288998 
2028.871619  	98.267959 
2030.308497  	98.443288 
2031.745375  	98.413759 
2033.182253  	98.224516 
2034.619131  	98.235626 
2036.056009  	98.494495 
2037.492887  	98.359116 
2038.929764  	98.217111 
2040.366642  	98.233801 
2041.803520  	97.912588 
2043.240398  	97.922569 
2044.677276  	98.216300 
2046.114154  	98.184053 
2047.551032  	98.211907 
2048.987910  	98.201808 
2050.424788  	98.267097 
2051.861666  	98.476925 
2053.298544  	98.339745 
2054.735422  	98.347204 
2056.172299  	98.520041 
2057.609177  	98.349144 
2059.046055  	98.398137 
2060.482933  	98.559030 
2061.919811  	98.466305 
2063.356689  	98.444105 
2064.793567  	98.323387 
2066.230445  	98.284276 
2067.667323  	98.436292 
2069.104201  	98.315136 
2070.541079  	98.289556 
2071.977957  	98.476605 
2073.414834  	98.520448 
2074.851712  	98.567940 
2076.288590  	98.453298 
2077.725468  	98.281849 
2079.162346  	98.363564 
2080.599224  	98.368284 
2082.036102  	98.279470 
2083.472980  	98.252841 
2084.909858  	98.251688 
2086.346736  	98.389101 
2087.783614  	98.460731 
2089.220492  	98.387273 
2090.657369  	98.391687 
2092.094247  	98.429778 
2093.531125  	98.457544 
2094.968003  	98.332729 
2096.404881  	98.169635 
2097.841759  	98.320976 
2099.278637  	98.390488 
2100.715515  	98.274697 
2102.152393  	98.358962 
2103.589271  	98.377012 
2105.026149  	98.264698 
2106.463027  	98.239607 
2107.899904  	98.273116 
2109.336782  	98.419256 
2110.773660  	98.485036 
2112.210538  	98.427920 
2113.647416  	98.441596 
2115.084294  	98.354705 
2116.521172  	98.314772 
2117.958050  	98.434381 
2119.394928  	98.407449 
2120.831806  	98.380968 
2122.268684  	98.412527 
2123.705562  	98.346171 
2125.142440  	98.348513 
2126.579317  	98.340228 
2128.016195  	98.266292 
2129.453073  	98.201851 
2130.889951  	98.056447 
2132.326829  	98.049802 
2133.763707  	98.129342 
2135.200585  	98.027700 
2136.637463  	98.082776 
2138.074341  	98.197020 
2139.511219  	98.051785 
2140.948097  	97.866562 
2142.384975  	97.781634 
2143.821852  	97.899096 
2145.258730  	98.082141 
2146.695608  	98.165707 
2148.132486  	98.353514 
2149.569364  	98.342114 
2151.006242  	98.209631 
2152.443120  	98.311929 
2153.879998  	98.172414 
2155.316876  	97.925871 
2156.753754  	97.996376 
2158.190632  	98.069095 
2159.627510  	98.057059 
2161.064387  	97.796117 
2162.501265  	97.532660 
2163.938143  	97.567525 
2165.375021  	97.676498 
2166.811899  	98.049934 
2168.248777  	98.493436 
2169.685655  	98.460402 
2171.122533  	98.268329 
2172.559411  	98.110087 
2173.996289  	98.167828 
2175.433167  	98.343574 
2176.870045  	98.165199 
2178.306922  	98.228732 
2179.743800  	98.430734 
2181.180678  	97.935242 
2182.617556  	97.708246 
2184.054434  	98.250533 
2185.491312  	98.546082 
2186.928190  	98.451098 
2188.365068  	98.241905 
2189.801946  	98.175698 
2191.238824  	98.374523 
2192.675702  	98.404434 
2194.112580  	98.173106 
2195.549457  	98.013378 
2196.986335  	98.103406 
2198.423213  	98.306106 
2199.860091  	98.316681 
2201.296969  	98.188443 
2202.733847  	97.989874 
2204.170725  	97.791075 
2205.607603  	97.910089 
2207.044481  	98.143078 
2208.481359  	98.159505 
2209.918237  	98.118747 
2211.355115  	98.055025 
2212.791992  	98.059862 
2214.228870  	98.088492 
2215.665748  	97.946909 
2217.102626  	97.955035 
2218.539504  	98.113552 
2219.976382  	98.042135 
2221.413260  	97.919015 
2222.850138  	97.938499 
2224.287016  	98.003314 
2225.723894  	98.019317 
2227.160772  	98.011658 
2228.597650  	98.115653 
2230.034527  	98.153362 
2231.471405  	98.047342 
2232.908283  	98.032147 
2234.345161  	97.989950 
2235.782039  	97.937775 
2237.218917  	98.088097 
2238.655795  	98.179275 
2240.092673  	98.073639 
2241.529551  	98.007088 
2242.966429  	98.027102 
2244.403307  	98.001183 
2245.840185  	98.021278 
2247.277062  	98.237589 
2248.713940  	98.301401 
2250.150818  	98.073547 
2251.587696  	98.036056 
2253.024574  	98.084795 
2254.461452  	98.021263 
2255.898330  	98.182862 
2257.335208  	98.401477 
2258.772086  	98.393434 
2260.208964  	98.277501 
2261.645842  	98.128143 
2263.082720  	98.125334 
2264.519597  	98.224992 
2265.956475  	98.232857 
2267.393353  	98.281556 
2268.830231  	98.322231 
2270.267109  	98.304729 
2271.703987  	98.341099 
2273.140865  	98.316161 
2274.577743  	98.310322 
2276.014621  	98.414027 
2277.451499  	98.406988 
2278.888377  	98.296083 
2280.325255  	98.244932 
2281.762132  	98.313848 
2283.199010  	98.393296 
2284.635888  	98.351718 
2286.072766  	98.368875 
2287.509644  	98.438205 
2288.946522  	98.354599 
2290.383400  	98.286008 
2291.820278  	98.286104 
2293.257156  	98.241518 
2294.694034  	98.249101 
2296.130912  	98.254145 
2297.567790  	98.173426 
2299.004667  	98.112052 
2300.441545  	98.095088 
2301.878423  	98.102946 
2303.315301  	98.106873 
2304.752179  	98.092908 
2306.189057  	98.076167 
2307.625935  	98.009457 
2309.062813  	97.985162 
2310.499691  	98.018725 
2311.936569  	97.949974 
2313.373447  	97.943581 
2314.810325  	98.077675 
2316.247202  	98.114906 
2317.684080  	98.128746 
2319.120958  	98.185119 
2320.557836  	98.138197 
2321.994714  	98.066726 
2323.431592  	98.064193 
2324.868470  	98.096347 
2326.305348  	98.122344 
2327.742226  	98.104988 
2329.179104  	98.108619 
2330.615982  	98.141661 
2332.052860  	98.115347 
2333.489737  	98.064088 
2334.926615  	98.050879 
2336.363493  	98.097419 
2337.800371  	98.141056 
2339.237249  	98.101410 
2340.674127  	98.089215 
2342.111005  	98.113433 
2343.547883  	98.039678 
2344.984761  	97.942854 
2346.421639  	97.916573 
2347.858517  	97.941605 
2349.295395  	98.001489 
2350.732273  	98.066722 
2352.169150  	98.091443 
2353.606028  	98.055972 
2355.042906  	98.017833 
2356.479784  	98.009742 
2357.916662  	97.972713 
2359.353540  	97.971263 
2360.790418  	98.058235 
2362.227296  	98.101298 
2363.664174  	98.140628 
2365.101052  	98.203198 
2366.537930  	98.195427 
2367.974808  	98.218125 
2369.411685  	98.298220 
2370.848563  	98.317873 
2372.285441  	98.275840 
2373.722319  	98.241807 
2375.159197  	98.252563 
2376.596075  	98.267407 
2378.032953  	98.264550 
2379.469831  	98.247809 
2380.906709  	98.195319 
2382.343587  	98.191561 
2383.780465  	98.277372 
2385.217343  	98.342773 
2386.654220  	98.368063 
2388.091098  	98.357820 
2389.527976  	98.306586 
2390.964854  	98.299454 
2392.401732  	98.293607 
2393.838610  	98.218920 
2395.275488  	98.200385 
2396.712366  	98.248293 
2398.149244  	98.247590 
2399.586122  	98.203346 
2401.023000  	98.155596 
2402.459878  	98.134719 
2403.896755  	98.131870 
2405.333633  	98.092250 
2406.770511  	98.042672 
2408.207389  	98.044208 
2409.644267  	98.096360 
2411.081145  	98.135223 
2412.518023  	98.112280 
2413.954901  	98.097222 
2415.391779  	98.103078 
2416.828657  	98.052611 
2418.265535  	98.012335 
2419.702413  	98.054945 
2421.139290  	98.109601 
2422.576168  	98.138364 
2424.013046  	98.156348 
2425.449924  	98.154962 
2426.886802  	98.118405 
2428.323680  	98.083071 
2429.760558  	98.123496 
2431.197436  	98.193318 
2432.634314  	98.196077 
2434.071192  	98.184826 
2435.508070  	98.179811 
2436.944948  	98.117859 
2438.381825  	98.085011 
2439.818703  	98.127477 
2441.255581  	98.119063 
2442.692459  	98.078495 
2444.129337  	98.078525 
2445.566215  	98.060093 
2447.003093  	98.064573 
2448.439971  	98.113786 
2449.876849  	98.087388 
2451.313727  	98.015113 
2452.750605  	97.994776 
2454.187483  	98.033708 
2455.624360  	98.096168 
2457.061238  	98.073289 
2458.498116  	98.007184 
2459.934994  	98.038277 
2461.371872  	98.059077 
2462.808750  	98.005967 
2464.245628  	97.979717 
2465.682506  	97.977079 
2467.119384  	98.011135 
2468.556262  	98.065356 
2469.993140  	98.058286 
2471.430018  	98.052369 
2472.866895  	98.056855 
2474.303773  	98.012045 
2475.740651  	97.979910 
2477.177529  	97.984701 
2478.614407  	97.999456 
2480.051285  	97.988789 
2481.488163  	97.932365 
2482.925041  	97.931467 
2484.361919  	97.991249 
2485.798797  	97.993966 
2487.235675  	97.954967 
2488.672553  	97.935679 
2490.109430  	97.942352 
2491.546308  	97.937932 
2492.983186  	97.911579 
2494.420064  	97.919593 
2495.856942  	97.904192 
2497.293820  	97.845327 
2498.730698  	97.857889 
2500.167576  	97.881169 
2501.604454  	97.877360 
2503.041332  	97.915947 
2504.478210  	97.906775 
2505.915088  	97.889041 
2507.351965  	97.956639 
2508.788843  	97.975894 
2510.225721  	97.963664 
2511.662599  	97.992567 
2513.099477  	97.961415 
2514.536355  	97.913171 
2515.973233  	97.908446 
2517.410111  	97.880511 
2518.846989  	97.867220 
2520.283867  	97.892586 
2521.720745  	97.896151 
2523.157623  	97.890545 
2524.594500  	97.871730 
2526.031378  	97.797954 
2527.468256  	97.720292 
2528.905134  	97.705724 
2530.342012  	97.746171 
2531.778890  	97.801097 
2533.215768  	97.813125 
2534.652646  	97.795009 
2536.089524  	97.820685 
2537.526402  	97.829978 
2538.963280  	97.791129 
2540.400158  	97.828944 
2541.837035  	97.892300 
2543.273913  	97.859354 
2544.710791  	97.787904 
2546.147669  	97.720027 
2547.584547  	97.704919 
2549.021425  	97.749311 
2550.458303  	97.740419 
2551.895181  	97.720224 
2553.332059  	97.719622 
2554.768937  	97.657686 
2556.205815  	97.619182 
2557.642693  	97.610653 
2559.079570  	97.570136 
2560.516448  	97.588254 
2561.953326  	97.603630 
2563.390204  	97.561142 
2564.827082  	97.585052 
2566.263960  	97.625414 
2567.700838  	97.634629 
2569.137716  	97.678141 
2570.574594  	97.680380 
2572.011472  	97.624574 
2573.448350  	97.592695 
2574.885228  	97.573580 
2576.322105  	97.557380 
2577.758983  	97.554809 
2579.195861  	97.552681 
2580.632739  	97.557886 
2582.069617  	97.577666 
2583.506495  	97.575909 
2584.943373  	97.518294 
2586.380251  	97.498460 
2587.817129  	97.585339 
2589.254007  	97.644547 
2590.690885  	97.620596 
2592.127763  	97.602259 
2593.564641  	97.586789 
2595.001518  	97.570644 
2596.438396  	97.583049 
2597.875274  	97.590193 
2599.312152  	97.573215 
2600.749030  	97.556915 
2602.185908  	97.582118 
2603.622786  	97.638858 
2605.059664  	97.645575 
2606.496542  	97.610902 
2607.933420  	97.597942 
2609.370298  	97.579748 
2610.807176  	97.540489 
2612.244053  	97.516226 
2613.680931  	97.512256 
2615.117809  	97.526652 
2616.554687  	97.563040 
2617.991565  	97.596249 
2619.428443  	97.598693 
2620.865321  	97.580091 
2622.302199  	97.570202 
2623.739077  	97.585466 
2625.175955  	97.613527 
2626.612833  	97.625263 
2628.049711  	97.621612 
2629.486588  	97.612911 
2630.923466  	97.584630 
2632.360344  	97.562395 
2633.797222  	97.583778 
2635.234100  	97.615424 
2636.670978  	97.611328 
2638.107856  	97.575232 
2639.544734  	97.547660 
2640.981612  	97.556403 
2642.418490  	97.589189 
2643.855368  	97.624051 
2645.292246  	97.633003 
2646.729123  	97.622500 
2648.166001  	97.630195 
2649.602879  	97.627047 
2651.039757  	97.604146 
2652.476635  	97.601758 
2653.913513  	97.589098 
2655.350391  	97.567293 
2656.787269  	97.566676 
2658.224147  	97.545568 
2659.661025  	97.519716 
2661.097903  	97.530495 
2662.534781  	97.561882 
2663.971658  	97.588906 
2665.408536  	97.551878 
2666.845414  	97.492135 
2668.282292  	97.518078 
2669.719170  	97.543867 
2671.156048  	97.510864 
2672.592926  	97.505059 
2674.029804  	97.509228 
2675.466682  	97.508636 
2676.903560  	97.526400 
2678.340438  	97.513336 
2679.777316  	97.483067 
2681.214193  	97.468475 
2682.651071  	97.448978 
2684.087949  	97.435240 
2685.524827  	97.436611 
2686.961705  	97.463598 
2688.398583  	97.501193 
2689.835461  	97.498030 
2691.272339  	97.491963 
2692.709217  	97.506719 
2694.146095  	97.484433 
2695.582973  	97.445332 
2697.019851  	97.446309 
2698.456728  	97.486596 
2699.893606  	97.514535 
2701.330484  	97.484198 
2702.767362  	97.449028 
2704.204240  	97.454106 
2705.641118  	97.464630 
2707.077996  	97.470401 
2708.514874  	97.464054 
2709.951752  	97.446827 
2711.388630  	97.442699 
2712.825508  	97.434661 
2714.262386  	97.430276 
2715.699263  	97.450310 
2717.136141  	97.469325 
2718.573019  	97.476387 
2720.009897  	97.457819 
2721.446775  	97.423633 
2722.883653  	97.418453 
2724.320531  	97.420088 
2725.757409  	97.416502 
2727.194287  	97.432667 
2728.631165  	97.430906 
2730.068043  	97.401299 
2731.504921  	97.392680 
2732.941798  	97.407669 
2734.378676  	97.411986 
2735.815554  	97.406817 
2737.252432  	97.421506 
2738.689310  	97.423185 
2740.126188  	97.385982 
2741.563066  	97.386343 
2742.999944  	97.427076 
2744.436822  	97.429494 
2745.873700  	97.407090 
2747.310578  	97.388513 
2748.747456  	97.369283 
2750.184333  	97.356752 
2751.621211  	97.347605 
2753.058089  	97.358230 
2754.494967  	97.392123 
2755.931845  	97.406562 
2757.368723  	97.389519 
2758.805601  	97.361533 
2760.242479  	97.353916 
2761.679357  	97.376191 
2763.116235  	97.386950 
2764.553113  	97.369737 
2765.989991  	97.342452 
2767.426868  	97.321500 
2768.863746  	97.321466 
2770.300624  	97.327265 
2771.737502  	97.332732 
2773.174380  	97.339602 
2774.611258  	97.329113 
2776.048136  	97.330853 
2777.485014  	97.351744 
2778.921892  	97.342006 
2780.358770  	97.329332 
2781.795648  	97.341100 
2783.232526  	97.331382 
2784.669403  	97.303459 
2786.106281  	97.295583 
2787.543159  	97.298053 
2788.980037  	97.282577 
2790.416915  	97.263924 
2791.853793  	97.275529 
2793.290671  	97.293083 
2794.727549  	97.289852 
2796.164427  	97.281566 
2797.601305  	97.265184 
2799.038183  	97.252699 
2800.475061  	97.270415 
2801.911938  	97.286571 
2803.348816  	97.264412 
2804.785694  	97.228809 
2806.222572  	97.221699 
2807.659450  	97.225896 
2809.096328  	97.213311 
2810.533206  	97.213487 
2811.970084  	97.223359 
2813.406962  	97.221233 
2814.843840  	97.223738 
2816.280718  	97.199485 
2817.717596  	97.162084 
2819.154474  	97.190985 
2820.591351  	97.243534 
2822.028229  	97.248361 
2823.465107  	97.204994 
2824.901985  	97.132687 
2826.338863  	97.108825 
2827.775741  	97.148757 
2829.212619  	97.180202 
2830.649497  	97.205558 
2832.086375  	97.207203 
2833.523253  	97.152090 
2834.960131  	97.121254 
2836.397009  	97.148648 
2837.833886  	97.174360 
2839.270764  	97.188439 
2840.707642  	97.199036 
2842.144520  	97.185636 
2843.581398  	97.160377 
2845.018276  	97.169682 
2846.455154  	97.198880 
2847.892032  	97.201030 
2849.328910  	97.205656 
2850.765788  	97.227089 
2852.202666  	97.229952 
2853.639544  	97.239616 
2855.076421  	97.268134 
2856.513299  	97.265291 
2857.950177  	97.223096 
2859.387055  	97.184551 
2860.823933  	97.157735 
2862.260811  	97.107393 
2863.697689  	97.070689 
2865.134567  	97.095676 
2866.571445  	97.112972 
2868.008323  	97.108517 
2869.445201  	97.128323 
2870.882079  	97.117901 
2872.318956  	97.072642 
2873.755834  	97.043218 
2875.192712  	97.024920 
2876.629590  	97.024205 
2878.066468  	97.009083 
2879.503346  	96.981354 
2880.940224  	97.020623 
2882.377102  	97.063186 
2883.813980  	97.046014 
2885.250858  	97.045243 
2886.687736  	97.048885 
2888.124614  	97.020051 
2889.561491  	96.990602 
2890.998369  	96.973916 
2892.435247  	96.994037 
2893.872125  	97.025956 
2895.309003  	97.016180 
2896.745881  	96.994476 
2898.182759  	96.972367 
2899.619637  	96.951456 
2901.056515  	96.971283 
2902.493393  	97.003916 
2903.930271  	96.994902 
2905.367149  	96.948976 
2906.804026  	96.927036 
2908.240904  	96.962501 
2909.677782  	96.978583 
2911.114660  	96.961391 
2912.551538  	97.001194 
2913.988416  	97.056292 
2915.425294  	97.051946 
2916.862172  	97.054203 
2918.299050  	97.104370 
2919.735928  	97.140936 
2921.172806  	97.113522 
2922.609684  	97.058888 
2924.046561  	97.059980 
2925.483439  	97.098802 
2926.920317  	97.075599 
2928.357195  	97.022825 
2929.794073  	97.032426 
2931.230951  	97.028041 
2932.667829  	96.946589 
2934.104707  	96.894391 
2935.541585  	96.896376 
2936.978463  	96.880036 
2938.415341  	96.861713 
2939.852219  	96.864061 
2941.289096  	96.863902 
2942.725974  	96.843817 
2944.162852  	96.792104 
2945.599730  	96.740158 
2947.036608  	96.726216 
2948.473486  	96.753046 
2949.910364  	96.791411 
2951.347242  	96.778523 
2952.784120  	96.743472 
2954.220998  	96.759811 
2955.657876  	96.778675 
2957.094754  	96.786514 
2958.531631  	96.808379 
2959.968509  	96.779144 
2961.405387  	96.721863 
2962.842265  	96.699889 
2964.279143  	96.682297 
2965.716021  	96.676765 
2967.152899  	96.679530 
2968.589777  	96.657510 
2970.026655  	96.664391 
2971.463533  	96.705136 
2972.900411  	96.698637 
2974.337289  	96.644343 
2975.774166  	96.617567 
2977.211044  	96.637958 
2978.647922  	96.647996 
2980.084800  	96.648843 
2981.521678  	96.687375 
2982.958556  	96.707077 
2984.395434  	96.667797 
2985.832312  	96.651359 
2987.269190  	96.689951 
2988.706068  	96.696262 
2990.142946  	96.623545 
2991.579824  	96.568537 
2993.016701  	96.586738 
2994.453579  	96.588185 
2995.890457  	96.553130 
2997.327335  	96.534341 
2998.764213  	96.514068 
3000.201091  	96.487330 
3001.637969  	96.461986 
3003.074847  	96.436622 
3004.511725  	96.440018 
3005.948603  	96.456346 
3007.385481  	96.472603 
3008.822359  	96.502421 
3010.259236  	96.495653 
3011.696114  	96.468081 
3013.132992  	96.492838 
3014.569870  	96.512010 
3016.006748  	96.469407 
3017.443626  	96.428332 
3018.880504  	96.419327 
3020.317382  	96.398427 
3021.754260  	96.352906 
3023.191138  	96.312872 
3024.628016  	96.301504 
3026.064894  	96.321552 
3027.501771  	96.321770 
3028.938649  	96.277125 
3030.375527  	96.282001 
3031.812405  	96.336637 
3033.249283  	96.323001 
3034.686161  	96.270624 
3036.123039  	96.230608 
3037.559917  	96.191894 
3038.996795  	96.189050 
3040.433673  	96.177751 
3041.870551  	96.137991 
3043.307429  	96.141820 
3044.744306  	96.123668 
3046.181184  	96.054518 
3047.618062  	96.029980 
3049.054940  	96.045692 
3050.491818  	96.090587 
3051.928696  	96.129646 
3053.365574  	96.093052 
3054.802452  	96.086336 
3056.239330  	96.150300 
3057.676208  	96.156950 
3059.113086  	96.109386 
3060.549964  	96.051533 
3061.986842  	96.000874 
3063.423719  	96.019333 
3064.860597  	96.045541 
3066.297475  	95.999802 
3067.734353  	95.953010 
3069.171231  	95.930360 
3070.608109  	95.883950 
3072.044987  	95.842461 
3073.481865  	95.852201 
3074.918743  	95.880911 
3076.355621  	95.882495 
3077.792499  	95.873727 
3079.229377  	95.867980 
3080.666254  	95.847799 
3082.103132  	95.828404 
3083.540010  	95.823640 
3084.976888  	95.804007 
3086.413766  	95.756635 
3087.850644  	95.724513 
3089.287522  	95.735692 
3090.724400  	95.746413 
3092.161278  	95.746543 
3093.598156  	95.765870 
3095.035034  	95.750756 
3096.471912  	95.680572 
3097.908789  	95.652401 
3099.345667  	95.692052 
3100.782545  	95.713061 
3102.219423  	95.675811 
3103.656301  	95.654819 
3105.093179  	95.680573 
3106.530057  	95.660662 
3107.966935  	95.605875 
3109.403813  	95.603364 
3110.840691  	95.589075 
3112.277569  	95.541288 
3113.714447  	95.546386 
3115.151324  	95.554767 
3116.588202  	95.520448 
3118.025080  	95.516035 
3119.461958  	95.520088 
3120.898836  	95.487697 
3122.335714  	95.482643 
3123.772592  	95.503440 
3125.209470  	95.489082 
3126.646348  	95.482633 
3128.083226  	95.496831 
3129.520104  	95.466990 
3130.956982  	95.436068 
3132.393859  	95.460737 
3133.830737  	95.508799 
3135.267615  	95.549648 
3136.704493  	95.537322 
3138.141371  	95.509484 
3139.578249  	95.549186 
3141.015127  	95.539006 
3142.452005  	95.450016 
3143.888883  	95.443875 
3145.325761  	95.466667 
3146.762639  	95.439052 
3148.199517  	95.412594 
3149.636394  	95.338217 
3151.073272  	95.278917 
3152.510150  	95.339701 
3153.947028  	95.393764 
3155.383906  	95.396258 
3156.820784  	95.380443 
3158.257662  	95.314015 
3159.694540  	95.290756 
3161.131418  	95.314959 
3162.568296  	95.281045 
3164.005174  	95.288297 
3165.442052  	95.346860 
3166.878929  	95.308372 
3168.315807  	95.252054 
3169.752685  	95.287648 
3171.189563  	95.329286 
3172.626441  	95.331967 
3174.063319  	95.328773 
3175.500197  	95.291846 
3176.937075  	95.183478 
3178.373953  	95.075234 
3179.810831  	95.084928 
3181.247709  	95.143257 
3182.684587  	95.100547 
3184.121464  	95.027712 
3185.558342  	95.050717 
3186.995220  	95.095514 
3188.432098  	95.109052 
3189.868976  	95.148311 
3191.305854  	95.142125 
3192.742732  	95.030165 
3194.179610  	94.962407 
3195.616488  	95.013090 
3197.053366  	95.056975 
3198.490244  	95.030608 
3199.927122  	94.969085 
3201.363999  	94.907136 
3202.800877  	94.892784 
3204.237755  	94.927065 
3205.674633  	94.973471 
3207.111511  	95.012702 
3208.548389  	94.951758 
3209.985267  	94.786998 
3211.422145  	94.756507 
3212.859023  	94.867785 
3214.295901  	94.891683 
3215.732779  	94.929488 
3217.169657  	95.053140 
3218.606534  	94.993960 
3220.043412  	94.846065 
3221.480290  	94.885537 
3222.917168  	94.904229 
3224.354046  	94.809987 
3225.790924  	94.866161 
3227.227802  	95.004033 
3228.664680  	94.975515 
3230.101558  	94.862648 
3231.538436  	94.860885 
3232.975314  	94.951775 
3234.412192  	94.947647 
3235.849069  	94.821696 
3237.285947  	94.793845 
3238.722825  	94.878555 
3240.159703  	94.866392 
3241.596581  	94.816136 
3243.033459  	94.857920 
3244.470337  	94.873249 
3245.907215  	94.868266 
3247.344093  	94.959389 
3248.780971  	94.998277 
3250.217849  	94.894153 
3251.654727  	94.819788 
3253.091604  	94.837537 
3254.528482  	94.853640 
3255.965360  	94.814365 
3257.402238  	94.716934 
3258.839116  	94.643075 
3260.275994  	94.693650 
3261.712872  	94.807495 
3263.149750  	94.866669 
3264.586628  	94.896198 
3266.023506  	94.915310 
3267.460384  	94.844545 
3268.897262  	94.760968 
3270.334139  	94.771804 
3271.771017  	94.778769 
3273.207895  	94.786329 
3274.644773  	94.866988 
3276.081651  	94.880180 
3277.518529  	94.810502 
3278.955407  	94.799636 
3280.392285  	94.810582 
3281.829163  	94.764274 
3283.266041  	94.689795 
3284.702919  	94.689032 
3286.139797  	94.794553 
3287.576674  	94.853545 
3289.013552  	94.823600 
3290.450430  	94.809777 
3291.887308  	94.807579 
3293.324186  	94.811572 
3294.761064  	94.799175 
3296.197942  	94.756501 
3297.634820  	94.791556 
3299.071698  	94.825505 
3300.508576  	94.763335 
3301.945454  	94.756147 
3303.382332  	94.761223 
3304.819210  	94.693856 
3306.256087  	94.672064 
3307.692965  	94.634913 
3309.129843  	94.578799 
3310.566721  	94.660186 
3312.003599  	94.739297 
3313.440477  	94.700181 
3314.877355  	94.665425 
3316.314233  	94.659802 
3317.751111  	94.680181 
3319.187989  	94.730483 
3320.624867  	94.719520 
3322.061745  	94.652860 
3323.498622  	94.632201 
3324.935500  	94.663121 
3326.372378  	94.682572 
3327.809256  	94.681532 
3329.246134  	94.684509 
3330.683012  	94.666954 
3332.119890  	94.639330 
3333.556768  	94.647939 
3334.993646  	94.663443 
3336.430524  	94.692327 
3337.867402  	94.744736 
3339.304280  	94.712530 
3340.741157  	94.614190 
3342.178035  	94.584244 
3343.614913  	94.586196 
3345.051791  	94.546808 
3346.488669  	94.501838 
3347.925547  	94.512921 
3349.362425  	94.609039 
3350.799303  	94.694681 
3352.236181  	94.703535 
3353.673059  	94.711945 
3355.109937  	94.652534 
3356.546815  	94.499555 
3357.983692  	94.502935 
3359.420570  	94.613981 
3360.857448  	94.569924 
3362.294326  	94.479847 
3363.731204  	94.443228 
3365.168082  	94.389021 
3366.604960  	94.440487 
3368.041838  	94.585099 
3369.478716  	94.588930 
3370.915594  	94.486237 
3372.352472  	94.474366 
3373.789350  	94.555201 
3375.226227  	94.575189 
3376.663105  	94.529479 
3378.099983  	94.572144 
3379.536861  	94.657683 
3380.973739  	94.658523 
3382.410617  	94.608254 
3383.847495  	94.550934 
3385.284373  	94.562997 
3386.721251  	94.627538 
3388.158129  	94.592464 
3389.595007  	94.573865 
3391.031885  	94.658859 
3392.468762  	94.638413 
3393.905640  	94.544810 
3395.342518  	94.539529 
3396.779396  	94.563759 
3398.216274  	94.626577 
3399.653152  	94.703197 
3401.090030  	94.632895 
3402.526908  	94.495171 
3403.963786  	94.510169 
3405.400664  	94.574308 
3406.837542  	94.526435 
3408.274420  	94.566758 
3409.711297  	94.728806 
3411.148175  	94.722661 
3412.585053  	94.663164 
3414.021931  	94.744914 
3415.458809  	94.771585 
3416.895687  	94.713191 
3418.332565  	94.661382 
3419.769443  	94.606419 
3421.206321  	94.631376 
3422.643199  	94.669622 
3424.080077  	94.636500 
3425.516955  	94.652482 
3426.953832  	94.712818 
3428.390710  	94.793751 
3429.827588  	94.893712 
3431.264466  	94.910567 
3432.701344  	94.889447 
3434.138222  	94.865257 
3435.575100  	94.805424 
3437.011978  	94.833023 
3438.448856  	94.940308 
3439.885734  	94.971120 
3441.322612  	94.947035 
3442.759490  	94.994451 
3444.196367  	95.086028 
3445.633245  	95.017389 
3447.070123  	94.841917 
3448.507001  	94.867636 
3449.943879  	95.031673 
3451.380757  	95.113873 
3452.817635  	95.124598 
3454.254513  	95.111791 
3455.691391  	95.114377 
3457.128269  	95.120454 
3458.565147  	95.162403 
3460.002025  	95.236041 
3461.438902  	95.138886 
3462.875780  	95.012670 
3464.312658  	95.131116 
3465.749536  	95.230590 
3467.186414  	95.202458 
3468.623292  	95.222205 
3470.060170  	95.210921 
3471.497048  	95.161406 
3472.933926  	95.158040 
3474.370804  	95.193567 
3475.807682  	95.282172 
3477.244560  	95.331783 
3478.681437  	95.357275 
3480.118315  	95.423870 
3481.555193  	95.389172 
3482.992071  	95.342173 
3484.428949  	95.438220 
3485.865827  	95.485376 
3487.302705  	95.429492 
3488.739583  	95.404047 
3490.176461  	95.429765 
3491.613339  	95.442731 
3493.050217  	95.433339 
3494.487095  	95.489068 
3495.923972  	95.544129 
3497.360850  	95.508768 
3498.797728  	95.563098 
3500.234606  	95.670742 
3501.671484  	95.598093 
3503.108362  	95.412791 
3504.545240  	95.346162 
3505.982118  	95.481303 
3507.418996  	95.597286 
3508.855874  	95.489206 
3510.292752  	95.435933 
3511.729630  	95.611853 
3513.166507  	95.705640 
3514.603385  	95.722224 
3516.040263  	95.763514 
3517.477141  	95.712363 
3518.914019  	95.696587 
3520.350897  	95.793429 
3521.787775  	95.731416 
3523.224653  	95.538022 
3524.661531  	95.517484 
3526.098409  	95.582754 
3527.535287  	95.573996 
3528.972165  	95.653741 
3530.409043  	95.798554 
3531.845920  	95.851550 
3533.282798  	95.901220 
3534.719676  	95.952550 
3536.156554  	95.915970 
3537.593432  	95.887134 
3539.030310  	95.954597 
3540.467188  	96.062926 
3541.904066  	96.123387 
3543.340944  	96.024467 
3544.777822  	95.761704 
3546.214700  	95.602815 
3547.651578  	95.785450 
3549.088455  	96.009856 
3550.525333  	96.030786 
3551.962211  	96.071072 
3553.399089  	96.134028 
3554.835967  	96.032154 
3556.272845  	95.942577 
3557.709723  	95.980120 
3559.146601  	96.063829 
3560.583479  	96.195819 
3562.020357  	96.285664 
3563.457235  	96.232411 
3564.894113  	96.131060 
3566.330990  	96.030533 
3567.767868  	95.965989 
3569.204746  	96.063216 
3570.641624  	96.173505 
3572.078502  	96.264241 
3573.515380  	96.349266 
3574.952258  	96.347630 
3576.389136  	96.272424 
3577.826014  	96.322124 
3579.262892  	96.488987 
3580.699770  	96.508330 
3582.136648  	96.418972 
3583.573525  	96.403052 
3585.010403  	96.347526 
3586.447281  	96.242071 
3587.884159  	96.231063 
3589.321037  	96.313012 
3590.757915  	96.482673 
3592.194793  	96.687534 
3593.631671  	96.683118 
3595.068549  	96.564666 
3596.505427  	96.640779 
3597.942305  	96.657483 
3599.379183  	96.511354 
3600.816060  	96.471234 
3602.252938  	96.569623 
3603.689816  	96.624864 
3605.126694  	96.599904 
3606.563572  	96.550712 
3608.000450  	96.564022 
3609.437328  	96.718171 
3610.874206  	96.887475 
3612.311084  	96.878665 
3613.747962  	96.643744 
3615.184840  	96.493210 
3616.621718  	96.617720 
3618.058595  	96.712797 
3619.495473  	96.555700 
3620.932351  	96.490953 
3622.369229  	96.678195 
3623.806107  	96.816816 
3625.242985  	96.820886 
3626.679863  	96.838993 
3628.116741  	97.008402 
3629.553619  	97.025004 
3630.990497  	96.836994 
3632.427375  	96.888084 
3633.864253  	97.101719 
3635.301130  	97.103310 
3636.738008  	97.017092 
3638.174886  	97.112117 
3639.611764  	97.229903 
3641.048642  	97.253392 
3642.485520  	97.217659 
3643.922398  	97.153398 
3645.359276  	97.144750 
3646.796154  	97.124278 
3648.233032  	97.059286 
3649.669910  	97.098101 
3651.106788  	97.097242 
3652.543665  	97.292133 
3653.980543  	97.553453 
3655.417421  	97.613580 
3656.854299  	97.408311 
3658.291177  	97.435473 
3659.728055  	97.601496 
3661.164933  	97.685312 
3662.601811  	97.720735 
3664.038689  	97.708527 
3665.475567  	97.682716 
3666.912445  	97.684906 
3668.349323  	97.666852 
3669.786200  	97.769517 
3671.223078  	98.025226 
3672.659956  	98.040733 
3674.096834  	98.150329 
3675.533712  	98.336411 
3676.970590  	97.897183 
3678.407468  	97.772343 
3679.844346  	97.917048 
3681.281224  	97.907179 
3682.718102  	97.940329 
3684.154980  	98.076829 
3685.591858  	98.077160 
3687.028735  	98.185131 
3688.465613  	98.361873 
3689.902491  	98.150085 
3691.339369  	97.950189 
3692.776247  	97.907510 
3694.213125  	97.916590 
3695.650003  	98.027823 
3697.086881  	98.117512 
3698.523759  	98.172589 
3699.960637  	98.292783 
3701.397515  	98.270740 
3702.834393  	98.040042 
3704.271270  	97.996600 
3705.708148  	98.141951 
3707.145026  	98.245696 
3708.581904  	98.192732 
3710.018782  	98.132346 
3711.455660  	98.138622 
3712.892538  	97.986957 
3714.329416  	97.803650 
3715.766294  	97.767811 
3717.203172  	97.838848 
3718.640050  	98.004446 
3720.076928  	98.089667 
3721.513805  	97.991530 
3722.950683  	97.902202 
3724.387561  	97.861363 
3725.824439  	97.748236 
3727.261317  	97.674615 
3728.698195  	97.747742 
3730.135073  	97.930772 
3731.571951  	98.245202 
3733.008829  	98.363559 
3734.445707  	98.105710 
3735.882585  	97.806506 
3737.319463  	97.685830 
3738.756340  	97.741257 
3740.193218  	97.789313 
3741.630096  	97.902547 
3743.066974  	98.216075 
3744.503852  	98.442865 
3745.940730  	97.967759 
3747.377608  	97.903296 
3748.814486  	98.211318 
3750.251364  	98.402537 
3751.688242  	98.163124 
3753.125120  	97.925928 
3754.561998  	98.066874 
3755.998875  	98.334765 
3757.435753  	98.419971 
3758.872631  	98.322540 
3760.309509  	98.325293 
3761.746387  	98.318683 
3763.183265  	98.366299 
3764.620143  	98.500942 
3766.057021  	98.385103 
3767.493899  	98.289849 
3768.930777  	98.472589 
3770.367655  	98.427056 
3771.804533  	98.100003 
3773.241411  	98.032211 
3774.678288  	98.159609 
3776.115166  	98.186215 
3777.552044  	98.131351 
3778.988922  	98.160188 
3780.425800  	98.200270 
3781.862678  	98.085733 
3783.299556  	98.039552 
3784.736434  	98.114763 
3786.173312  	98.055029 
3787.610190  	97.969255 
3789.047068  	97.966008 
3790.483946  	97.954757 
3791.920823  	97.964237 
3793.357701  	98.087822 
3794.794579  	98.139847 
3796.231457  	98.041532 
3797.668335  	97.933440 
3799.105213  	98.069440 
3800.542091  	98.244322 
3801.978969  	98.098499 
3803.415847  	97.998467 
3804.852725  	98.195273 
3806.289603  	98.312137 
3807.726481  	98.102311 
3809.163358  	97.993893 
3810.600236  	98.011853 
3812.037114  	97.957895 
3813.473992  	98.071150 
3814.910870  	98.463895 
3816.347748  	98.602277 
3817.784626  	98.164601 
3819.221504  	98.025932 
3820.658382  	98.164845 
3822.095260  	98.134521 
3823.532138  	98.004277 
3824.969016  	97.992015 
3826.405893  	98.090071 
3827.842771  	98.136246 
3829.279649  	98.107469 
3830.716527  	98.115906 
3832.153405  	98.138711 
3833.590283  	98.126539 
3835.027161  	98.147821 
3836.464039  	98.196222 
3837.900917  	98.086412 
3839.337795  	97.865080 
3840.774673  	97.784437 
3842.211551  	97.754163 
3843.648428  	97.774954 
3845.085306  	97.901713 
3846.522184  	98.008264 
3847.959062  	98.056871 
3849.395940  	98.058547 
3850.832818  	98.148138 
3852.269696  	98.518585 
3853.706574  	98.570321 
3855.143452  	97.868887 
3856.580330  	97.772077 
3858.017208  	97.937967 
3859.454086  	98.062897 
3860.890963  	98.059725 
3862.327841  	97.997665 
3863.764719  	98.195256 
3865.201597  	98.420962 
3866.638475  	98.169656 
3868.075353  	98.043873 
3869.512231  	98.151608 
3870.949109  	97.933632 
3872.385987  	97.826526 
3873.822865  	97.916863 
3875.259743  	97.951720 
3876.696621  	98.023195 
3878.133498  	98.123285 
3879.570376  	98.127062 
3881.007254  	98.016805 
3882.444132  	98.022366 
3883.881010  	98.118914 
3885.317888  	98.125107 
3886.754766  	97.917077 
3888.191644  	97.887670 
3889.628522  	98.000645 
3891.065400  	97.993116 
3892.502278  	97.788284 
3893.939156  	97.798469 
3895.376033  	97.963697 
3896.812911  	98.011673 
3898.249789  	97.991337 
3899.686667  	98.036860 
3901.123545  	98.019613 
3902.560423  	97.943439 
3903.997301  	97.916574 
3905.434179  	97.879561 
3906.871057  	97.863700 
3908.307935  	97.895041 
3909.744813  	97.967515 
3911.181691  	98.054018 
3912.618568  	98.037820 
3914.055446  	98.139237 
3915.492324  	98.148885 
3916.929202  	98.009679 
3918.366080  	97.929542 
3919.802958  	97.992264 
3921.239836  	97.966714 
3922.676714  	97.945203 
3924.113592  	97.995686 
3925.550470  	97.980834 
3926.987348  	97.974986 
3928.424226  	98.030591 
3929.861103  	98.021885 
3931.297981  	97.966978 
3932.734859  	97.919478 
3934.171737  	97.883848 
3935.608615  	97.888234 
3937.045493  	97.912276 
3938.482371  	97.914651 
3939.919249  	97.931920 
3941.356127  	97.974609 
3942.793005  	97.965886 
3944.229883  	97.947498 
3945.666761  	97.972455 
3947.103638  	97.966695 
3948.540516  	97.951372 
3949.977394  	97.930944 
3951.414272  	97.842424 
3952.851150  	97.836078 
3954.288028  	97.972069 
3955.724906  	98.048477 
3957.161784  	97.995154 
3958.598662  	97.945497 
3960.035540  	97.933996 
3961.472418  	97.987188 
3962.909296  	97.996770 
3964.346173  	97.969945 
3965.783051  	98.017379 
3967.219929  	98.051903 
3968.656807  	98.014462 
3970.093685  	97.965029 
3971.530563  	97.917708 
3972.967441  	97.926665 
3974.404319  	97.993845 
3975.841197  	98.011381 
3977.278075  	97.990265 
3978.714953  	97.997938 
3980.151831  	97.980774 
3981.588708  	97.911279 
3983.025586  	97.894119 
3984.462464  	97.961140 
3985.899342  	98.023617 
3987.336220  	98.040061 
3988.773098  	97.979557 
3990.209976  	97.902602 
3991.646854  	97.940217 
3993.083732  	97.976256 
3994.520610  	97.939354 
3995.957488  	97.978368 
3997.394366  	98.021201 
3998.831244  	97.986664 
4000.268121  	97.962582 