##TITLE=No Description
##DATA TYPE=INFRARED SPECTRUM
##XUNITS=1/CM
##YUNITS=%T
399.452061  	24.536978 
400.888939  	25.605165 
402.325817  	25.510162 
403.762695  	24.779406 
405.199573  	25.208333 
406.636451  	25.988623 
408.073328  	26.221205 
409.510206  	25.742468 
410.947084  	24.682145 
412.383962  	24.926515 
413.820840  	25.718064 
415.257718  	25.106107 
416.694596  	24.487609 
418.131474  	24.862204 
419.568352  	25.463112 
421.005230  	25.114675 
422.442108  	24.812646 
423.878986  	25.314082 
425.315863  	25.642481 
426.752741  	25.558105 
428.189619  	25.716910 
429.626497  	25.513935 
431.063375  	25.218161 
432.500253  	25.079093 
433.937131  	24.529168 
435.374009  	24.658751 
436.810887  	25.221342 
438.247765  	25.206908 
439.684643  	25.536198 
441.121521  	25.715190 
442.558398  	25.491225 
443.995276  	25.792685 
445.432154  	25.632604 
446.869032  	25.396780 
448.305910  	25.845993 
449.742788  	25.896277 
451.179666  	25.915961 
452.616544  	26.216995 
454.053422  	26.040774 
455.490300  	25.809405 
456.927178  	25.666556 
458.364056  	25.631829 
459.800933  	25.642713 
461.237811  	25.311753 
462.674689  	25.383037 
464.111567  	25.916072 
465.548445  	26.079224 
466.985323  	26.369589 
468.422201  	26.661925 
469.859079  	26.219306 
471.295957  	25.357049 
472.732835  	24.949888 
474.169713  	25.633780 
475.606591  	26.322861 
477.043469  	26.441301 
478.480346  	26.573085 
479.917224  	26.612147 
481.354102  	26.417798 
482.790980  	26.553501 
484.227858  	26.828127 
485.664736  	26.916326 
487.101614  	26.953039 
488.538492  	26.949837 
489.975370  	26.966299 
491.412248  	26.852201 
492.849126  	26.605500 
494.286004  	26.657165 
495.722881  	26.860097 
497.159759  	26.878555 
498.596637  	26.735234 
500.033515  	26.552516 
501.470393  	26.442868 
502.907271  	26.499485 
504.344149  	26.587614 
505.781027  	26.471069 
507.217905  	26.226903 
508.654783  	26.240871 
510.091661  	26.308126 
511.528539  	26.171248 
512.965416  	26.102572 
514.402294  	26.111903 
515.839172  	26.104738 
517.276050  	26.122503 
518.712928  	25.983523 
520.149806  	25.800953 
521.586684  	25.763447 
523.023562  	25.710799 
524.460440  	25.657278 
525.897318  	25.649255 
527.334196  	25.540082 
528.771074  	25.363643 
530.207951  	25.281376 
531.644829  	25.319063 
533.081707  	25.300352 
534.518585  	25.202003 
535.955463  	25.145111 
537.392341  	25.060782 
538.829219  	24.984421 
540.266097  	24.922420 
541.702975  	24.737149 
543.139853  	24.646860 
544.576731  	24.681785 
546.013609  	24.565238 
547.450486  	24.461108 
548.887364  	24.441565 
550.324242  	24.348956 
551.761120  	24.292013 
553.197998  	24.220170 
554.634876  	24.045057 
556.071754  	23.986789 
557.508632  	24.075240 
558.945510  	24.036710 
560.382388  	23.829018 
561.819266  	23.757747 
563.256144  	23.806868 
564.693021  	23.645770 
566.129899  	23.462190 
567.566777  	23.493664 
569.003655  	23.534884 
570.440533  	23.517722 
571.877411  	23.465093 
573.314289  	23.405592 
574.751167  	23.463923 
576.188045  	23.483966 
577.624923  	23.362035 
579.061801  	23.327458 
580.498679  	23.420474 
581.935556  	23.493041 
583.372434  	23.474551 
584.809312  	23.452747 
586.246190  	23.501049 
587.683068  	23.544810 
589.119946  	23.628931 
590.556824  	23.739716 
591.993702  	23.692825 
593.430580  	23.625239 
594.867458  	23.689802 
596.304336  	23.765330 
597.741214  	23.831816 
599.178091  	23.890892 
600.614969  	23.932440 
602.051847  	23.955626 
603.488725  	23.904091 
604.925603  	23.896392 
606.362481  	24.015514 
607.799359  	24.090303 
609.236237  	24.149390 
610.673115  	24.206199 
612.109993  	24.269152 
613.546871  	24.335561 
614.983749  	24.371512 
616.420626  	24.418906 
617.857504  	24.505621 
619.294382  	24.585352 
620.731260  	24.660142 
622.168138  	24.717983 
623.605016  	24.752439 
625.041894  	24.784553 
626.478772  	24.794332 
627.915650  	24.830524 
629.352528  	24.874031 
630.789406  	24.761398 
632.226284  	24.709049 
633.663161  	24.833464 
635.100039  	24.922281 
636.536917  	24.956613 
637.973795  	24.964472 
639.410673  	24.969420 
640.847551  	25.000672 
642.284429  	24.998056 
643.721307  	24.994721 
645.158185  	25.039473 
646.595063  	25.022873 
648.031941  	24.991792 
649.468819  	24.998182 
650.905696  	24.978853 
652.342574  	24.994576 
653.779452  	25.020522 
655.216330  	25.017723 
656.653208  	25.050223 
658.090086  	25.092020 
659.526964  	25.181734 
660.963842  	25.281448 
662.400720  	25.319995 
663.837598  	25.412269 
665.274476  	25.435531 
666.711354  	25.399112 
668.148231  	25.560301 
669.585109  	25.752245 
671.021987  	25.740885 
672.458865  	25.747424 
673.895743  	25.751264 
675.332621  	25.736146 
676.769499  	25.700409 
678.206377  	25.650775 
679.643255  	25.616418 
681.080133  	25.606478 
682.517011  	25.554970 
683.953889  	25.514604 
685.390766  	25.521141 
686.827644  	25.506980 
688.264522  	25.490821 
689.701400  	25.469278 
691.138278  	25.409238 
692.575156  	25.377653 
694.012034  	25.378361 
695.448912  	25.373351 
696.885790  	25.378643 
698.322668  	25.395720 
699.759546  	25.401282 
701.196424  	25.395045 
702.633301  	25.413379 
704.070179  	25.469728 
705.507057  	25.541215 
706.943935  	25.503368 
708.380813  	25.496646 
709.817691  	25.585806 
711.254569  	25.680761 
712.691447  	25.708249 
714.128325  	25.731301 
715.565203  	25.810395 
717.002081  	25.891390 
718.438959  	25.953752 
719.875837  	26.013681 
721.312714  	26.058258 
722.749592  	26.125595 
724.186470  	26.208825 
725.623348  	26.262395 
727.060226  	26.311629 
728.497104  	26.384788 
729.933982  	26.453711 
731.370860  	26.507199 
732.807738  	26.536130 
734.244616  	26.583465 
735.681494  	26.658558 
737.118372  	26.685385 
738.555249  	26.708025 
739.992127  	26.769571 
741.429005  	26.835502 
742.865883  	26.904498 
744.302761  	26.945831 
745.739639  	26.965084 
747.176517  	27.007782 
748.613395  	27.046415 
750.050273  	27.097070 
751.487151  	27.177029 
752.924029  	27.220808 
754.360907  	27.232718 
755.797784  	27.261297 
757.234662  	27.329332 
758.671540  	27.443495 
760.108418  	27.539437 
761.545296  	27.584242 
762.982174  	27.652892 
764.419052  	27.798020 
765.855930  	27.971827 
767.292808  	28.115426 
768.729686  	28.253047 
770.166564  	28.396643 
771.603442  	28.537873 
773.040319  	28.725273 
774.477197  	28.923627 
775.914075  	29.088408 
777.350953  	29.282887 
778.787831  	29.483168 
780.224709  	29.646136 
781.661587  	29.812686 
783.098465  	29.979851 
784.535343  	30.139354 
785.972221  	30.297605 
787.409099  	30.465727 
788.845977  	30.655439 
790.282854  	30.814574 
791.719732  	30.956205 
793.156610  	31.124102 
794.593488  	31.285605 
796.030366  	31.474900 
797.467244  	31.679091 
798.904122  	31.829253 
800.341000  	31.981571 
801.777878  	32.140652 
803.214756  	32.297829 
804.651634  	32.490011 
806.088512  	32.626998 
807.525389  	32.720707 
808.962267  	32.862820 
810.399145  	32.972938 
811.836023  	33.043370 
813.272901  	33.151534 
814.709779  	33.271999 
816.146657  	33.363762 
817.583535  	33.388985 
819.020413  	33.370723 
820.457291  	33.378798 
821.894169  	33.401246 
823.331047  	33.420852 
824.767924  	33.412112 
826.204802  	33.360412 
827.641680  	33.332762 
829.078558  	33.286343 
830.515436  	33.155692 
831.952314  	33.033437 
833.389192  	32.944651 
834.826070  	32.858053 
836.262948  	32.794189 
837.699826  	32.709617 
839.136704  	32.594486 
840.573582  	32.494383 
842.010459  	32.412441 
843.447337  	32.342597 
844.884215  	32.251646 
846.321093  	32.149939 
847.757971  	32.066890 
849.194849  	31.958402 
850.631727  	31.882513 
852.068605  	31.877807 
853.505483  	31.819509 
854.942361  	31.726824 
856.379239  	31.690362 
857.816117  	31.668266 
859.252994  	31.643910 
860.689872  	31.613614 
862.126750  	31.556641 
863.563628  	31.493094 
865.000506  	31.438310 
866.437384  	31.399370 
867.874262  	31.350715 
869.311140  	31.282495 
870.748018  	31.229440 
872.184896  	31.156893 
873.621774  	31.061003 
875.058652  	30.993765 
876.495529  	30.923063 
877.932407  	30.821503 
879.369285  	30.689630 
880.806163  	30.547402 
882.243041  	30.417933 
883.679919  	30.217015 
885.116797  	29.965952 
886.553675  	29.767432 
887.990553  	29.527034 
889.427431  	29.231300 
890.864309  	28.969741 
892.301187  	28.709010 
893.738064  	28.478157 
895.174942  	28.262492 
896.611820  	28.007109 
898.048698  	27.822556 
899.485576  	27.718351 
900.922454  	27.640060 
902.359332  	27.621540 
903.796210  	27.632334 
905.233088  	27.692112 
906.669966  	27.811210 
908.106844  	27.914117 
909.543722  	28.060478 
910.980599  	28.290999 
912.417477  	28.533244 
913.854355  	28.789842 
915.291233  	29.044508 
916.728111  	29.244996 
918.164989  	29.434847 
919.601867  	29.638968 
921.038745  	29.797477 
922.475623  	29.891787 
923.912501  	29.960353 
925.349379  	30.003115 
926.786257  	29.981558 
928.223134  	29.891445 
929.660012  	29.754685 
931.096890  	29.605227 
932.533768  	29.494283 
933.970646  	29.411273 
935.407524  	29.332611 
936.844402  	29.308475 
938.281280  	29.363923 
939.718158  	29.487095 
941.155036  	29.682505 
942.591914  	29.942142 
944.028792  	30.260432 
945.465670  	30.635936 
946.902547  	31.031697 
948.339425  	31.429642 
949.776303  	31.860397 
951.213181  	32.300372 
952.650059  	32.728387 
954.086937  	33.189812 
955.523815  	33.666781 
956.960693  	34.130797 
958.397571  	34.584502 
959.834449  	35.013800 
961.271327  	35.463642 
962.708205  	35.929142 
964.145082  	36.365054 
965.581960  	36.803636 
967.018838  	37.213222 
968.455716  	37.593087 
969.892594  	37.988055 
971.329472  	38.337029 
972.766350  	38.656328 
974.203228  	38.964349 
975.640106  	39.201407 
977.076984  	39.403373 
978.513862  	39.575957 
979.950740  	39.723519 
981.387617  	39.870344 
982.824495  	39.968279 
984.261373  	40.083826 
985.698251  	40.230914 
987.135129  	40.296672 
988.572007  	40.315927 
990.008885  	40.271280 
991.445763  	40.121918 
992.882641  	39.962912 
994.319519  	39.779777 
995.756397  	39.576159 
997.193275  	39.421107 
998.630152  	39.249299 
1000.067030  	39.039813 
1001.503908  	38.815507 
1002.940786  	38.564503 
1004.377664  	38.330403 
1005.814542  	38.090651 
1007.251420  	37.814752 
1008.688298  	37.531891 
1010.125176  	37.184393 
1011.562054  	36.777030 
1012.998932  	36.374880 
1014.435810  	35.928808 
1015.872687  	35.470309 
1017.309565  	35.083819 
1018.746443  	34.727645 
1020.183321  	34.423723 
1021.620199  	34.218559 
1023.057077  	34.061753 
1024.493955  	33.944090 
1025.930833  	33.833936 
1027.367711  	33.709868 
1028.804589  	33.642321 
1030.241467  	33.626663 
1031.678345  	33.654198 
1033.115222  	33.769934 
1034.552100  	33.935905 
1035.988978  	34.116216 
1037.425856  	34.320788 
1038.862734  	34.549782 
1040.299612  	34.812245 
1041.736490  	35.112158 
1043.173368  	35.433077 
1044.610246  	35.756824 
1046.047124  	36.081579 
1047.484002  	36.367909 
1048.920880  	36.573152 
1050.357757  	36.736878 
1051.794635  	36.874189 
1053.231513  	36.990507 
1054.668391  	37.121575 
1056.105269  	37.248277 
1057.542147  	37.360905 
1058.979025  	37.455933 
1060.415903  	37.537046 
1061.852781  	37.636169 
1063.289659  	37.674663 
1064.726537  	37.635994 
1066.163415  	37.619336 
1067.600292  	37.583041 
1069.037170  	37.511527 
1070.474048  	37.434865 
1071.910926  	37.286687 
1073.347804  	37.120162 
1074.784682  	36.988019 
1076.221560  	36.826150 
1077.658438  	36.676533 
1079.095316  	36.552465 
1080.532194  	36.373195 
1081.969072  	36.159297 
1083.405950  	35.966967 
1084.842827  	35.791350 
1086.279705  	35.577427 
1087.716583  	35.317719 
1089.153461  	35.086829 
1090.590339  	34.857899 
1092.027217  	34.593832 
1093.464095  	34.366608 
1094.900973  	34.143533 
1096.337851  	33.889307 
1097.774729  	33.660237 
1099.211607  	33.428381 
1100.648485  	33.228235 
1102.085362  	33.094594 
1103.522240  	32.917845 
1104.959118  	32.754261 
1106.395996  	32.683100 
1107.832874  	32.610636 
1109.269752  	32.559553 
1110.706630  	32.561462 
1112.143508  	32.572445 
1113.580386  	32.611651 
1115.017264  	32.658220 
1116.454142  	32.708706 
1117.891020  	32.782850 
1119.327897  	32.864402 
1120.764775  	32.990250 
1122.201653  	33.122066 
1123.638531  	33.213756 
1125.075409  	33.361814 
1126.512287  	33.578292 
1127.949165  	33.777677 
1129.386043  	33.937703 
1130.822921  	34.104302 
1132.259799  	34.304661 
1133.696677  	34.463989 
1135.133555  	34.565759 
1136.570432  	34.672714 
1138.007310  	34.762981 
1139.444188  	34.827638 
1140.881066  	34.880687 
1142.317944  	34.910430 
1143.754822  	34.951346 
1145.191700  	34.983673 
1146.628578  	34.966157 
1148.065456  	34.946388 
1149.502334  	34.926340 
1150.939212  	34.880554 
1152.376090  	34.847912 
1153.812967  	34.841222 
1155.249845  	34.832727 
1156.686723  	34.807962 
1158.123601  	34.774708 
1159.560479  	34.735639 
1160.997357  	34.690735 
1162.434235  	34.666550 
1163.871113  	34.649429 
1165.307991  	34.618202 
1166.744869  	34.607000 
1168.181747  	34.594913 
1169.618625  	34.565828 
1171.055502  	34.561529 
1172.492380  	34.567491 
1173.929258  	34.591610 
1175.366136  	34.647382 
1176.803014  	34.690626 
1178.239892  	34.757332 
1179.676770  	34.861334 
1181.113648  	34.940580 
1182.550526  	35.018173 
1183.987404  	35.128494 
1185.424282  	35.266611 
1186.861160  	35.417458 
1188.298038  	35.548718 
1189.734915  	35.687774 
1191.171793  	35.855572 
1192.608671  	36.022703 
1194.045549  	36.193198 
1195.482427  	36.368171 
1196.919305  	36.544659 
1198.356183  	36.727230 
1199.793061  	36.905488 
1201.229939  	37.083009 
1202.666817  	37.262820 
1204.103695  	37.460117 
1205.540573  	37.673338 
1206.977450  	37.860860 
1208.414328  	38.039375 
1209.851206  	38.226504 
1211.288084  	38.403703 
1212.724962  	38.588592 
1214.161840  	38.770259 
1215.598718  	38.932690 
1217.035596  	39.087938 
1218.472474  	39.234462 
1219.909352  	39.386556 
1221.346230  	39.523971 
1222.783108  	39.630824 
1224.219985  	39.748423 
1225.656863  	39.867255 
1227.093741  	39.973516 
1228.530619  	40.078171 
1229.967497  	40.179160 
1231.404375  	40.297260 
1232.841253  	40.409518 
1234.278131  	40.510920 
1235.715009  	40.640471 
1237.151887  	40.747804 
1238.588765  	40.824292 
1240.025643  	40.922601 
1241.462520  	41.040655 
1242.899398  	41.179113 
1244.336276  	41.292971 
1245.773154  	41.369395 
1247.210032  	41.472064 
1248.646910  	41.567983 
1250.083788  	41.642541 
1251.520666  	41.714235 
1252.957544  	41.770628 
1254.394422  	41.865128 
1255.831300  	41.945338 
1257.268178  	41.950709 
1258.705055  	41.981973 
1260.141933  	42.027941 
1261.578811  	42.057463 
1263.015689  	42.102954 
1264.452567  	42.109088 
1265.889445  	42.107601 
1267.326323  	42.130601 
1268.763201  	42.121460 
1270.200079  	42.112814 
1271.636957  	42.103968 
1273.073835  	42.074224 
1274.510713  	42.048531 
1275.947590  	41.999189 
1277.384468  	41.942059 
1278.821346  	41.889122 
1280.258224  	41.830916 
1281.695102  	41.797135 
1283.131980  	41.735426 
1284.568858  	41.645143 
1286.005736  	41.582324 
1287.442614  	41.508573 
1288.879492  	41.438922 
1290.316370  	41.366348 
1291.753248  	41.269964 
1293.190125  	41.219960 
1294.627003  	41.149701 
1296.063881  	41.029521 
1297.500759  	40.952850 
1298.937637  	40.866258 
1300.374515  	40.769155 
1301.811393  	40.678924 
1303.248271  	40.592470 
1304.685149  	40.512231 
1306.122027  	40.443300 
1307.558905  	40.348832 
1308.995783  	40.295173 
1310.432660  	40.209087 
1311.869538  	40.104936 
1313.306416  	40.095118 
1314.743294  	40.081486 
1316.180172  	40.044328 
1317.617050  	40.039133 
1319.053928  	40.044197 
1320.490806  	40.087326 
1321.927684  	40.097962 
1323.364562  	40.059470 
1324.801440  	40.052091 
1326.238318  	40.041179 
1327.675195  	40.009798 
1329.112073  	39.981492 
1330.548951  	39.940073 
1331.985829  	39.922350 
1333.422707  	39.876863 
1334.859585  	39.783481 
1336.296463  	39.725084 
1337.733341  	39.630201 
1339.170219  	39.565452 
1340.607097  	39.608430 
1342.043975  	39.561576 
1343.480853  	39.454551 
1344.917730  	39.385150 
1346.354608  	39.310381 
1347.791486  	39.231006 
1349.228364  	39.154206 
1350.665242  	39.065155 
1352.102120  	38.969822 
1353.538998  	38.855902 
1354.975876  	38.813439 
1356.412754  	38.758678 
1357.849632  	38.624848 
1359.286510  	38.490022 
1360.723388  	38.337079 
1362.160265  	38.214494 
1363.597143  	38.188623 
1365.034021  	38.048196 
1366.470899  	37.821702 
1367.907777  	37.698761 
1369.344655  	37.629815 
1370.781533  	37.496200 
1372.218411  	37.260037 
1373.655289  	37.149027 
1375.092167  	37.251280 
1376.529045  	37.148693 
1377.965923  	36.940064 
1379.402800  	36.855427 
1380.839678  	36.744924 
1382.276556  	36.612637 
1383.713434  	36.524167 
1385.150312  	36.308511 
1386.587190  	36.162324 
1388.024068  	36.190899 
1389.460946  	36.085223 
1390.897824  	35.897653 
1392.334702  	35.645773 
1393.771580  	35.435997 
1395.208458  	35.479704 
1396.645335  	35.320096 
1398.082213  	34.998940 
1399.519091  	35.006070 
1400.955969  	34.951927 
1402.392847  	34.622768 
1403.829725  	34.425416 
1405.266603  	34.366782 
1406.703481  	34.298128 
1408.140359  	34.144944 
1409.577237  	33.974505 
1411.014115  	33.948320 
1412.450993  	33.892377 
1413.887871  	33.805319 
1415.324748  	33.738776 
1416.761626  	33.528516 
1418.198504  	33.501813 
1419.635382  	34.092464 
1421.072260  	34.222955 
1422.509138  	33.927568 
1423.946016  	33.976944 
1425.382894  	34.319740 
1426.819772  	34.284376 
1428.256650  	34.239968 
1429.693528  	34.546205 
1431.130406  	34.808412 
1432.567283  	34.958031 
1434.004161  	34.937047 
1435.441039  	34.797731 
1436.877917  	35.453648 
1438.314795  	36.128435 
1439.751673  	36.043485 
1441.188551  	36.121526 
1442.625429  	36.384493 
1444.062307  	36.591800 
1445.499185  	36.788582 
1446.936063  	36.951343 
1448.372941  	37.286018 
1449.809818  	37.553181 
1451.246696  	37.644787 
1452.683574  	37.906624 
1454.120452  	38.023146 
1455.557330  	37.866249 
1456.994208  	38.490985 
1458.431086  	39.307225 
1459.867964  	39.300865 
1461.304842  	39.263552 
1462.741720  	39.240133 
1464.178598  	39.417383 
1465.615476  	39.818051 
1467.052353  	39.947881 
1468.489231  	40.014747 
1469.926109  	39.957451 
1471.362987  	39.901091 
1472.799865  	40.264110 
1474.236743  	40.469108 
1475.673621  	40.345388 
1477.110499  	40.496547 
1478.547377  	40.580905 
1479.984255  	40.467642 
1481.421133  	40.507306 
1482.858011  	40.574607 
1484.294888  	40.467794 
1485.731766  	40.370657 
1487.168644  	40.395530 
1488.605522  	40.359570 
1490.042400  	40.429707 
1491.479278  	40.669333 
1492.916156  	40.506517 
1494.353034  	40.274535 
1495.789912  	40.231606 
1497.226790  	40.395254 
1498.663668  	40.415309 
1500.100546  	40.341191 
1501.537423  	40.295776 
1502.974301  	40.159143 
1504.411179  	39.788597 
1505.848057  	39.442121 
1507.284935  	40.252508 
1508.721813  	40.536550 
1510.158691  	40.059051 
1511.595569  	39.906330 
1513.032447  	39.886401 
1514.469325  	39.677757 
1515.906203  	39.469916 
1517.343081  	39.656931 
1518.779958  	39.515204 
1520.216836  	39.034387 
1521.653714  	39.423224 
1523.090592  	39.630267 
1524.527470  	39.237234 
1525.964348  	39.197143 
1527.401226  	39.293699 
1528.838104  	39.204575 
1530.274982  	39.050521 
1531.711860  	38.602354 
1533.148738  	38.500816 
1534.585616  	39.067929 
1536.022493  	38.694165 
1537.459371  	37.963936 
1538.896249  	37.607153 
1540.333127  	38.375805 
1541.770005  	38.826710 
1543.206883  	38.382467 
1544.643761  	38.200179 
1546.080639  	38.334700 
1547.517517  	37.923589 
1548.954395  	37.598780 
1550.391273  	37.689553 
1551.828151  	37.511725 
1553.265028  	37.188783 
1554.701906  	37.210580 
1556.138784  	36.966712 
1557.575662  	36.102337 
1559.012540  	36.637052 
1560.449418  	38.028399 
1561.886296  	37.043481 
1563.323174  	36.457324 
1564.760052  	36.372144 
1566.196930  	36.297190 
1567.633808  	35.909463 
1569.070686  	35.736489 
1570.507563  	36.049247 
1571.944441  	35.907592 
1573.381319  	35.450035 
1574.818197  	35.159105 
1576.255075  	35.321063 
1577.691953  	35.644337 
1579.128831  	35.394535 
1580.565709  	35.210641 
1582.002587  	35.156669 
1583.439465  	35.058601 
1584.876343  	34.957442 
1586.313221  	34.908504 
1587.750098  	34.795705 
1589.186976  	34.743493 
1590.623854  	34.749929 
1592.060732  	34.678797 
1593.497610  	34.591049 
1594.934488  	34.560665 
1596.371366  	34.591966 
1597.808244  	34.607256 
1599.245122  	34.550980 
1600.682000  	34.496415 
1602.118878  	34.509898 
1603.555756  	34.596353 
1604.992633  	34.670166 
1606.429511  	34.602388 
1607.866389  	34.636071 
1609.303267  	34.805225 
1610.740145  	34.872186 
1612.177023  	34.949228 
1613.613901  	34.851948 
1615.050779  	34.614287 
1616.487657  	34.906565 
1617.924535  	35.636766 
1619.361413  	35.606524 
1620.798291  	35.351520 
1622.235168  	35.337669 
1623.672046  	35.864897 
1625.108924  	36.120624 
1626.545802  	35.968761 
1627.982680  	36.153399 
1629.419558  	36.494355 
1630.856436  	36.505959 
1632.293314  	36.415792 
1633.730192  	36.231637 
1635.167070  	36.369200 
1636.603948  	37.500248 
1638.040826  	37.564719 
1639.477703  	37.262857 
1640.914581  	37.314206 
1642.351459  	37.358281 
1643.788337  	37.209535 
1645.225215  	37.061196 
1646.662093  	37.352311 
1648.098971  	38.274388 
1649.535849  	38.158224 
1650.972727  	37.371121 
1652.409605  	36.881158 
1653.846483  	39.069090 
1655.283361  	39.252873 
1656.720239  	38.748677 
1658.157116  	38.633145 
1659.593994  	38.609255 
1661.030872  	38.545364 
1662.467750  	38.706611 
1663.904628  	39.107260 
1665.341506  	39.103918 
1666.778384  	38.836154 
1668.215262  	38.853933 
1669.652140  	39.275598 
1671.089018  	39.794382 
1672.525896  	39.678909 
1673.962774  	39.281693 
1675.399651  	39.770742 
1676.836529  	40.358473 
1678.273407  	39.929071 
1679.710285  	39.903823 
1681.147163  	40.017999 
1682.584041  	39.712265 
1684.020919  	40.030137 
1685.457797  	41.160964 
1686.894675  	40.563545 
1688.331553  	40.329257 
1689.768431  	40.441239 
1691.205309  	40.589361 
1692.642186  	40.502495 
1694.079064  	40.056613 
1695.515942  	40.160127 
1696.952820  	40.859418 
1698.389698  	40.396939 
1699.826576  	40.033653 
1701.263454  	41.512772 
1702.700332  	41.028219 
1704.137210  	40.584781 
1705.574088  	40.901003 
1707.010966  	41.148141 
1708.447844  	40.984310 
1709.884721  	41.003474 
1711.321599  	41.024741 
1712.758477  	40.935815 
1714.195355  	40.988638 
1715.632233  	41.107592 
1717.069111  	41.196345 
1718.505989  	41.674419 
1719.942867  	41.921983 
1721.379745  	41.628152 
1722.816623  	41.532962 
1724.253501  	41.660501 
1725.690379  	41.701520 
1727.127256  	41.614006 
1728.564134  	41.563593 
1730.001012  	41.639817 
1731.437890  	41.578799 
1732.874768  	41.245465 
1734.311646  	41.644340 
1735.748524  	42.434975 
1737.185402  	41.709769 
1738.622280  	41.447457 
1740.059158  	41.706677 
1741.496036  	41.673580 
1742.932914  	41.541548 
1744.369791  	41.617399 
1745.806669  	41.509045 
1747.243547  	41.385179 
1748.680425  	41.427228 
1750.117303  	41.394887 
1751.554181  	41.514942 
1752.991059  	41.639907 
1754.427937  	41.454821 
1755.864815  	41.294115 
1757.301693  	41.431666 
1758.738571  	41.391183 
1760.175449  	41.139797 
1761.612326  	41.104650 
1763.049204  	41.332001 
1764.486082  	41.244271 
1765.922960  	40.979138 
1767.359838  	40.959386 
1768.796716  	41.047702 
1770.233594  	40.883530 
1771.670472  	40.865020 
1773.107350  	41.289456 
1774.544228  	41.221336 
1775.981106  	41.029111 
1777.417984  	40.995524 
1778.854861  	40.905987 
1780.291739  	40.888869 
1781.728617  	41.000610 
1783.165495  	40.912718 
1784.602373  	40.836642 
1786.039251  	40.920280 
1787.476129  	40.878224 
1788.913007  	40.629224 
1790.349885  	40.369737 
1791.786763  	40.424635 
1793.223641  	40.967451 
1794.660519  	40.963674 
1796.097396  	40.681970 
1797.534274  	40.640595 
1798.971152  	40.563213 
1800.408030  	40.560201 
1801.844908  	40.746314 
1803.281786  	40.672149 
1804.718664  	40.567479 
1806.155542  	40.539117 
1807.592420  	40.420549 
1809.029298  	40.356783 
1810.466176  	40.381990 
1811.903054  	40.504811 
1813.339931  	40.562824 
1814.776809  	40.352036 
1816.213687  	40.299847 
1817.650565  	40.343592 
1819.087443  	40.281074 
1820.524321  	40.302474 
1821.961199  	40.287147 
1823.398077  	40.122396 
1824.834955  	40.233226 
1826.271833  	40.388173 
1827.708711  	40.156126 
1829.145589  	40.056425 
1830.582466  	40.332525 
1832.019344  	40.363805 
1833.456222  	40.160363 
1834.893100  	40.057932 
1836.329978  	40.091608 
1837.766856  	40.083926 
1839.203734  	40.143225 
1840.640612  	40.103733 
1842.077490  	39.802537 
1843.514368  	39.729705 
1844.951246  	40.150785 
1846.388124  	40.181084 
1847.825001  	40.007857 
1849.261879  	40.028728 
1850.698757  	40.068562 
1852.135635  	40.031464 
1853.572513  	39.998648 
1855.009391  	39.950130 
1856.446269  	39.903736 
1857.883147  	39.917306 
1859.320025  	39.906085 
1860.756903  	39.838169 
1862.193781  	39.830141 
1863.630659  	39.859230 
1865.067536  	39.813464 
1866.504414  	39.668305 
1867.941292  	39.576871 
1869.378170  	39.884244 
1870.815048  	40.156964 
1872.251926  	39.937370 
1873.688804  	39.781119 
1875.125682  	39.890827 
1876.562560  	39.890016 
1877.999438  	39.851002 
1879.436316  	39.831520 
1880.873194  	39.748818 
1882.310072  	39.728482 
1883.746949  	39.696848 
1885.183827  	39.651664 
1886.620705  	39.605587 
1888.057583  	39.497041 
1889.494461  	39.661537 
1890.931339  	39.880804 
1892.368217  	39.657054 
1893.805095  	39.526085 
1895.241973  	39.601549 
1896.678851  	39.612836 
1898.115729  	39.658104 
1899.552607  	39.668627 
1900.989484  	39.562291 
1902.426362  	39.516209 
1903.863240  	39.528614 
1905.300118  	39.574683 
1906.736996  	39.513413 
1908.173874  	39.382671 
1909.610752  	39.473891 
1911.047630  	39.534725 
1912.484508  	39.466840 
1913.921386  	39.501710 
1915.358264  	39.409676 
1916.795142  	39.369547 
1918.232019  	39.537768 
1919.668897  	39.604662 
1921.105775  	39.502162 
1922.542653  	39.497743 
1923.979531  	39.595215 
1925.416409  	39.614055 
1926.853287  	39.496512 
1928.290165  	39.445504 
1929.727043  	39.516724 
1931.163921  	39.626477 
1932.600799  	39.640546 
1934.037677  	39.532508 
1935.474554  	39.527889 
1936.911432  	39.611098 
1938.348310  	39.572721 
1939.785188  	39.492295 
1941.222066  	39.431665 
1942.658944  	39.494679 
1944.095822  	39.709049 
1945.532700  	39.733129 
1946.969578  	39.751312 
1948.406456  	39.816577 
1949.843334  	39.701620 
1951.280212  	39.684116 
1952.717089  	39.829161 
1954.153967  	39.799903 
1955.590845  	39.752114 
1957.027723  	39.801436 
1958.464601  	39.861898 
1959.901479  	39.851779 
1961.338357  	39.895037 
1962.775235  	40.255620 
1964.212113  	40.333676 
1965.648991  	40.177578 
1967.085869  	40.743929 
1968.522747  	41.091462 
1969.959624  	40.555530 
1971.396502  	40.327583 
1972.833380  	40.604641 
1974.270258  	40.746022 
1975.707136  	40.713041 
1977.144014  	40.732004 
1978.580892  	40.665316 
1980.017770  	40.452522 
1981.454648  	40.506562 
1982.891526  	40.395043 
1984.328404  	39.849132 
1985.765282  	39.826588 
1987.202159  	40.227539 
1988.639037  	40.138929 
1990.075915  	39.968326 
1991.512793  	40.076231 
1992.949671  	40.296811 
1994.386549  	40.361168 
1995.823427  	40.203903 
1997.260305  	40.234836 
1998.697183  	40.302273 
2000.134061  	40.068784 
2001.570939  	40.020856 
2003.007817  	40.134526 
2004.444694  	40.225648 
2005.881572  	40.344670 
2007.318450  	40.165245 
2008.755328  	40.155188 
2010.192206  	40.520824 
2011.629084  	40.724362 
2013.065962  	40.992858 
2014.502840  	40.997325 
2015.939718  	40.629516 
2017.376596  	40.553828 
2018.813474  	40.580471 
2020.250352  	40.633544 
2021.687229  	40.887905 
2023.124107  	40.984465 
2024.560985  	40.972117 
2025.997863  	40.813465 
2027.434741  	40.860416 
2028.871619  	41.360018 
2030.308497  	41.292083 
2031.745375  	40.836072 
2033.182253  	40.793225 
2034.619131  	40.759852 
2036.056009  	40.586085 
2037.492887  	40.374355 
2038.929764  	40.209860 
2040.366642  	40.263997 
2041.803520  	40.128175 
2043.240398  	39.867242 
2044.677276  	39.858497 
2046.114154  	39.840499 
2047.551032  	39.867116 
2048.987910  	39.952167 
2050.424788  	39.794580 
2051.861666  	39.604213 
2053.298544  	39.512678 
2054.735422  	39.494603 
2056.172299  	39.453558 
2057.609177  	39.222279 
2059.046055  	39.133548 
2060.482933  	39.254315 
2061.919811  	39.199079 
2063.356689  	39.179112 
2064.793567  	39.246930 
2066.230445  	39.119962 
2067.667323  	39.002646 
2069.104201  	38.999307 
2070.541079  	38.985892 
2071.977957  	38.933220 
2073.414834  	38.846324 
2074.851712  	38.862222 
2076.288590  	38.945687 
2077.725468  	38.941462 
2079.162346  	38.884637 
2080.599224  	38.771276 
2082.036102  	38.657935 
2083.472980  	38.649269 
2084.909858  	38.715878 
2086.346736  	38.778858 
2087.783614  	38.684608 
2089.220492  	38.523276 
2090.657369  	38.497625 
2092.094247  	38.490144 
2093.531125  	38.505419 
2094.968003  	38.567985 
2096.404881  	38.498909 
2097.841759  	38.433099 
2099.278637  	38.426549 
2100.715515  	38.416756 
2102.152393  	38.501478 
2103.589271  	38.469632 
2105.026149  	38.320197 
2106.463027  	38.345651 
2107.899904  	38.396573 
2109.336782  	38.361801 
2110.773660  	38.320719 
2112.210538  	38.311146 
2113.647416  	38.391721 
2115.084294  	38.365032 
2116.521172  	38.206477 
2117.958050  	38.143419 
2119.394928  	38.095104 
2120.831806  	38.097984 
2122.268684  	38.183987 
2123.705562  	38.120966 
2125.142440  	38.103167 
2126.579317  	38.250509 
2128.016195  	38.263240 
2129.453073  	38.177961 
2130.889951  	38.197975 
2132.326829  	38.335394 
2133.763707  	38.473122 
2135.200585  	38.585738 
2136.637463  	38.761804 
2138.074341  	38.720130 
2139.511219  	38.582218 
2140.948097  	38.757962 
2142.384975  	38.848478 
2143.821852  	38.751704 
2145.258730  	38.778931 
2146.695608  	38.878470 
2148.132486  	39.127175 
2149.569364  	39.141561 
2151.006242  	38.901869 
2152.443120  	39.195164 
2153.879998  	39.544170 
2155.316876  	39.544583 
2156.753754  	39.846846 
2158.190632  	40.062208 
2159.627510  	39.889674 
2161.064387  	39.839610 
2162.501265  	39.881020 
2163.938143  	39.781380 
2165.375021  	39.476576 
2166.811899  	39.362752 
2168.248777  	39.535811 
2169.685655  	39.513806 
2171.122533  	39.323538 
2172.559411  	39.190945 
2173.996289  	39.268657 
2175.433167  	39.455318 
2176.870045  	39.169003 
2178.306922  	38.787038 
2179.743800  	38.921508 
2181.180678  	39.175837 
2182.617556  	39.367238 
2184.054434  	39.345717 
2185.491312  	39.055560 
2186.928190  	39.014568 
2188.365068  	39.081565 
2189.801946  	39.053831 
2191.238824  	39.110308 
2192.675702  	38.999507 
2194.112580  	38.886625 
2195.549457  	38.859838 
2196.986335  	38.627207 
2198.423213  	38.506404 
2199.860091  	38.492199 
2201.296969  	38.436568 
2202.733847  	38.564728 
2204.170725  	38.467519 
2205.607603  	38.260650 
2207.044481  	38.440216 
2208.481359  	38.498958 
2209.918237  	38.394806 
2211.355115  	38.435669 
2212.791992  	38.339551 
2214.228870  	38.199657 
2215.665748  	38.172167 
2217.102626  	38.206718 
2218.539504  	38.334375 
2219.976382  	38.301182 
2221.413260  	38.176102 
2222.850138  	38.216740 
2224.287016  	38.265007 
2225.723894  	38.254889 
2227.160772  	38.153818 
2228.597650  	38.013737 
2230.034527  	38.013980 
2231.471405  	38.007325 
2232.908283  	37.962962 
2234.345161  	37.976198 
2235.782039  	37.957351 
2237.218917  	37.947123 
2238.655795  	37.884410 
2240.092673  	37.797939 
2241.529551  	37.838602 
2242.966429  	37.757141 
2244.403307  	37.601368 
2245.840185  	37.628460 
2247.277062  	37.615164 
2248.713940  	37.561695 
2250.150818  	37.564324 
2251.587696  	37.503883 
2253.024574  	37.488804 
2254.461452  	37.539592 
2255.898330  	37.551880 
2257.335208  	37.510386 
2258.772086  	37.406048 
2260.208964  	37.348182 
2261.645842  	37.384603 
2263.082720  	37.361140 
2264.519597  	37.291720 
2265.956475  	37.238107 
2267.393353  	37.200127 
2268.830231  	37.228296 
2270.267109  	37.267166 
2271.703987  	37.215359 
2273.140865  	37.143002 
2274.577743  	37.098744 
2276.014621  	37.067205 
2277.451499  	37.049894 
2278.888377  	37.051713 
2280.325255  	37.034163 
2281.762132  	36.985911 
2283.199010  	36.975197 
2284.635888  	36.955518 
2286.072766  	36.896974 
2287.509644  	36.883380 
2288.946522  	36.862944 
2290.383400  	36.791940 
2291.820278  	36.782942 
2293.257156  	36.798364 
2294.694034  	36.767911 
2296.130912  	36.730009 
2297.567790  	36.659814 
2299.004667  	36.595732 
2300.441545  	36.561152 
2301.878423  	36.521098 
2303.315301  	36.515134 
2304.752179  	36.526217 
2306.189057  	36.506947 
2307.625935  	36.472094 
2309.062813  	36.444612 
2310.499691  	36.435341 
2311.936569  	36.398309 
2313.373447  	36.335125 
2314.810325  	36.340392 
2316.247202  	36.361055 
2317.684080  	36.310629 
2319.120958  	36.272171 
2320.557836  	36.251702 
2321.994714  	36.238396 
2323.431592  	36.262315 
2324.868470  	36.262869 
2326.305348  	36.190928 
2327.742226  	36.126140 
2329.179104  	36.105930 
2330.615982  	36.076152 
2332.052860  	36.041090 
2333.489737  	36.052792 
2334.926615  	36.076878 
2336.363493  	36.075178 
2337.800371  	36.071014 
2339.237249  	36.062342 
2340.674127  	36.088798 
2342.111005  	36.117684 
2343.547883  	36.074938 
2344.984761  	36.108025 
2346.421639  	36.248412 
2347.858517  	36.209008 
2349.295395  	35.998813 
2350.732273  	35.823373 
2352.169150  	35.840581 
2353.606028  	35.872676 
2355.042906  	35.789087 
2356.479784  	35.800899 
2357.916662  	35.895993 
2359.353540  	35.887019 
2360.790418  	35.888004 
2362.227296  	35.940176 
2363.664174  	35.981159 
2365.101052  	36.029498 
2366.537930  	36.048549 
2367.974808  	36.068524 
2369.411685  	36.071816 
2370.848563  	36.016236 
2372.285441  	36.017561 
2373.722319  	36.038036 
2375.159197  	36.023752 
2376.596075  	36.072096 
2378.032953  	36.118598 
2379.469831  	36.099774 
2380.906709  	36.090949 
2382.343587  	36.077202 
2383.780465  	36.019994 
2385.217343  	35.955413 
2386.654220  	35.937529 
2388.091098  	35.985119 
2389.527976  	35.994150 
2390.964854  	35.970218 
2392.401732  	35.993107 
2393.838610  	36.016319 
2395.275488  	36.013868 
2396.712366  	36.009480 
2398.149244  	36.005667 
2399.586122  	36.010862 
2401.023000  	35.994633 
2402.459878  	35.968734 
2403.896755  	35.962727 
2405.333633  	35.943004 
2406.770511  	35.925657 
2408.207389  	35.901185 
2409.644267  	35.856044 
2411.081145  	35.851536 
2412.518023  	35.846667 
2413.954901  	35.828283 
2415.391779  	35.844913 
2416.828657  	35.819556 
2418.265535  	35.771856 
2419.702413  	35.785949 
2421.139290  	35.811004 
2422.576168  	35.818955 
2424.013046  	35.800593 
2425.449924  	35.774395 
2426.886802  	35.777613 
2428.323680  	35.747186 
2429.760558  	35.709935 
2431.197436  	35.723728 
2432.634314  	35.718950 
2434.071192  	35.712648 
2435.508070  	35.712349 
2436.944948  	35.662518 
2438.381825  	35.644505 
2439.818703  	35.695712 
2441.255581  	35.719535 
2442.692459  	35.684998 
2444.129337  	35.657100 
2445.566215  	35.655659 
2447.003093  	35.622297 
2448.439971  	35.598187 
2449.876849  	35.622969 
2451.313727  	35.600685 
2452.750605  	35.563646 
2454.187483  	35.583838 
2455.624360  	35.597207 
2457.061238  	35.582189 
2458.498116  	35.539568 
2459.934994  	35.522221 
2461.371872  	35.583148 
2462.808750  	35.607719 
2464.245628  	35.586360 
2465.682506  	35.576766 
2467.119384  	35.520070 
2468.556262  	35.471322 
2469.993140  	35.459658 
2471.430018  	35.432050 
2472.866895  	35.443691 
2474.303773  	35.452647 
2475.740651  	35.411674 
2477.177529  	35.393383 
2478.614407  	35.406638 
2480.051285  	35.465333 
2481.488163  	35.518944 
2482.925041  	35.493540 
2484.361919  	35.469798 
2485.798797  	35.449378 
2487.235675  	35.415951 
2488.672553  	35.419767 
2490.109430  	35.399132 
2491.546308  	35.383068 
2492.983186  	35.403881 
2494.420064  	35.371275 
2495.856942  	35.346532 
2497.293820  	35.350582 
2498.730698  	35.319018 
2500.167576  	35.307188 
2501.604454  	35.304203 
2503.041332  	35.310510 
2504.478210  	35.338395 
2505.915088  	35.287573 
2507.351965  	35.230586 
2508.788843  	35.270405 
2510.225721  	35.313178 
2511.662599  	35.314571 
2513.099477  	35.288199 
2514.536355  	35.258019 
2515.973233  	35.246421 
2517.410111  	35.224239 
2518.846989  	35.211368 
2520.283867  	35.209727 
2521.720745  	35.213164 
2523.157623  	35.250192 
2524.594500  	35.240273 
2526.031378  	35.191451 
2527.468256  	35.191071 
2528.905134  	35.167920 
2530.342012  	35.126549 
2531.778890  	35.122752 
2533.215768  	35.120599 
2534.652646  	35.150204 
2536.089524  	35.179563 
2537.526402  	35.151537 
2538.963280  	35.124556 
2540.400158  	35.096199 
2541.837035  	35.075401 
2543.273913  	35.103993 
2544.710791  	35.109973 
2546.147669  	35.060687 
2547.584547  	35.017854 
2549.021425  	35.027462 
2550.458303  	35.060857 
2551.895181  	35.056798 
2553.332059  	35.054386 
2554.768937  	35.066230 
2556.205815  	35.022240 
2557.642693  	34.952766 
2559.079570  	34.935043 
2560.516448  	34.990103 
2561.953326  	35.049568 
2563.390204  	35.020889 
2564.827082  	34.958927 
2566.263960  	34.927130 
2567.700838  	34.923298 
2569.137716  	34.952535 
2570.574594  	34.934395 
2572.011472  	34.877664 
2573.448350  	34.884305 
2574.885228  	34.894724 
2576.322105  	34.870620 
2577.758983  	34.841446 
2579.195861  	34.805269 
2580.632739  	34.814739 
2582.069617  	34.840962 
2583.506495  	34.839131 
2584.943373  	34.852410 
2586.380251  	34.840787 
2587.817129  	34.810293 
2589.254007  	34.800092 
2590.690885  	34.767447 
2592.127763  	34.764068 
2593.564641  	34.798700 
2595.001518  	34.798503 
2596.438396  	34.783963 
2597.875274  	34.741469 
2599.312152  	34.698354 
2600.749030  	34.720851 
2602.185908  	34.726286 
2603.622786  	34.692449 
2605.059664  	34.677610 
2606.496542  	34.677306 
2607.933420  	34.701847 
2609.370298  	34.716410 
2610.807176  	34.690578 
2612.244053  	34.663265 
2613.680931  	34.627069 
2615.117809  	34.588481 
2616.554687  	34.582077 
2617.991565  	34.615425 
2619.428443  	34.656168 
2620.865321  	34.619099 
2622.302199  	34.554849 
2623.739077  	34.559737 
2625.175955  	34.560975 
2626.612833  	34.545378 
2628.049711  	34.540910 
2629.486588  	34.508384 
2630.923466  	34.501615 
2632.360344  	34.506112 
2633.797222  	34.455945 
2635.234100  	34.433255 
2636.670978  	34.440457 
2638.107856  	34.415281 
2639.544734  	34.397371 
2640.981612  	34.386529 
2642.418490  	34.363030 
2643.855368  	34.338155 
2645.292246  	34.308128 
2646.729123  	34.298254 
2648.166001  	34.309162 
2649.602879  	34.299141 
2651.039757  	34.264618 
2652.476635  	34.234456 
2653.913513  	34.229021 
2655.350391  	34.225593 
2656.787269  	34.201448 
2658.224147  	34.170747 
2659.661025  	34.141565 
2661.097903  	34.134960 
2662.534781  	34.142638 
2663.971658  	34.117611 
2665.408536  	34.087311 
2666.845414  	34.076081 
2668.282292  	34.058902 
2669.719170  	34.049340 
2671.156048  	34.040114 
2672.592926  	34.025693 
2674.029804  	34.033535 
2675.466682  	34.029708 
2676.903560  	33.995489 
2678.340438  	33.963641 
2679.777316  	33.941969 
2681.214193  	33.942099 
2682.651071  	33.952386 
2684.087949  	33.936586 
2685.524827  	33.908185 
2686.961705  	33.887177 
2688.398583  	33.863353 
2689.835461  	33.832056 
2691.272339  	33.809192 
2692.709217  	33.798540 
2694.146095  	33.781481 
2695.582973  	33.773217 
2697.019851  	33.777684 
2698.456728  	33.765905 
2699.893606  	33.751884 
2701.330484  	33.726166 
2702.767362  	33.685558 
2704.204240  	33.688562 
2705.641118  	33.704549 
2707.077996  	33.698361 
2708.514874  	33.711224 
2709.951752  	33.700435 
2711.388630  	33.648764 
2712.825508  	33.623576 
2714.262386  	33.619541 
2715.699263  	33.613606 
2717.136141  	33.601537 
2718.573019  	33.576649 
2720.009897  	33.557398 
2721.446775  	33.535620 
2722.883653  	33.515319 
2724.320531  	33.518592 
2725.757409  	33.518755 
2727.194287  	33.513983 
2728.631165  	33.504573 
2730.068043  	33.466080 
2731.504921  	33.435368 
2732.941798  	33.427291 
2734.378676  	33.405056 
2735.815554  	33.382197 
2737.252432  	33.386204 
2738.689310  	33.407744 
2740.126188  	33.409413 
2741.563066  	33.371107 
2742.999944  	33.336821 
2744.436822  	33.335107 
2745.873700  	33.320694 
2747.310578  	33.277730 
2748.747456  	33.277196 
2750.184333  	33.329158 
2751.621211  	33.331110 
2753.058089  	33.279477 
2754.494967  	33.253830 
2755.931845  	33.243076 
2757.368723  	33.235092 
2758.805601  	33.227009 
2760.242479  	33.192716 
2761.679357  	33.177295 
2763.116235  	33.186454 
2764.553113  	33.169753 
2765.989991  	33.152005 
2767.426868  	33.139768 
2768.863746  	33.114571 
2770.300624  	33.097657 
2771.737502  	33.092351 
2773.174380  	33.094551 
2774.611258  	33.085837 
2776.048136  	33.058036 
2777.485014  	33.043407 
2778.921892  	33.031946 
2780.358770  	33.019172 
2781.795648  	33.021737 
2783.232526  	33.016690 
2784.669403  	33.010830 
2786.106281  	32.998979 
2787.543159  	32.969991 
2788.980037  	32.968739 
2790.416915  	32.960952 
2791.853793  	32.909057 
2793.290671  	32.876356 
2794.727549  	32.875053 
2796.164427  	32.881192 
2797.601305  	32.867992 
2799.038183  	32.818642 
2800.475061  	32.809886 
2801.911938  	32.851237 
2803.348816  	32.852385 
2804.785694  	32.815872 
2806.222572  	32.785250 
2807.659450  	32.764937 
2809.096328  	32.755784 
2810.533206  	32.763432 
2811.970084  	32.767018 
2813.406962  	32.722615 
2814.843840  	32.684947 
2816.280718  	32.711611 
2817.717596  	32.718494 
2819.154474  	32.690901 
2820.591351  	32.690499 
2822.028229  	32.697635 
2823.465107  	32.699639 
2824.901985  	32.688477 
2826.338863  	32.656859 
2827.775741  	32.626153 
2829.212619  	32.596205 
2830.649497  	32.602163 
2832.086375  	32.636146 
2833.523253  	32.627823 
2834.960131  	32.609153 
2836.397009  	32.600509 
2837.833886  	32.586159 
2839.270764  	32.586890 
2840.707642  	32.563988 
2842.144520  	32.536075 
2843.581398  	32.548013 
2845.018276  	32.546452 
2846.455154  	32.541245 
2847.892032  	32.533480 
2849.328910  	32.510778 
2850.765788  	32.545725 
2852.202666  	32.584629 
2853.639544  	32.573917 
2855.076421  	32.573760 
2856.513299  	32.560531 
2857.950177  	32.546049 
2859.387055  	32.546357 
2860.823933  	32.512368 
2862.260811  	32.495719 
2863.697689  	32.502539 
2865.134567  	32.489316 
2866.571445  	32.485112 
2868.008323  	32.485416 
2869.445201  	32.503253 
2870.882079  	32.510835 
2872.318956  	32.464543 
2873.755834  	32.460763 
2875.192712  	32.485790 
2876.629590  	32.473435 
2878.066468  	32.477470 
2879.503346  	32.464110 
2880.940224  	32.451091 
2882.377102  	32.477466 
2883.813980  	32.458288 
2885.250858  	32.459046 
2886.687736  	32.498267 
2888.124614  	32.462719 
2889.561491  	32.431959 
2890.998369  	32.441755 
2892.435247  	32.441003 
2893.872125  	32.459734 
2895.309003  	32.454872 
2896.745881  	32.425777 
2898.182759  	32.402439 
2899.619637  	32.371046 
2901.056515  	32.404598 
2902.493393  	32.438075 
2903.930271  	32.377820 
2905.367149  	32.357717 
2906.804026  	32.386191 
2908.240904  	32.374065 
2909.677782  	32.365466 
2911.114660  	32.356849 
2912.551538  	32.320166 
2913.988416  	32.298007 
2915.425294  	32.331622 
2916.862172  	32.371066 
2918.299050  	32.329750 
2919.735928  	32.294498 
2921.172806  	32.331375 
2922.609684  	32.343035 
2924.046561  	32.337509 
2925.483439  	32.335615 
2926.920317  	32.314490 
2928.357195  	32.322438 
2929.794073  	32.330076 
2931.230951  	32.323312 
2932.667829  	32.339387 
2934.104707  	32.329853 
2935.541585  	32.313508 
2936.978463  	32.327122 
2938.415341  	32.328205 
2939.852219  	32.315543 
2941.289096  	32.305105 
2942.725974  	32.313015 
2944.162852  	32.310155 
2945.599730  	32.269353 
2947.036608  	32.269937 
2948.473486  	32.280386 
2949.910364  	32.239471 
2951.347242  	32.227895 
2952.784120  	32.230421 
2954.220998  	32.226338 
2955.657876  	32.235605 
2957.094754  	32.198260 
2958.531631  	32.173402 
2959.968509  	32.183437 
2961.405387  	32.164177 
2962.842265  	32.191966 
2964.279143  	32.223297 
2965.716021  	32.191624 
2967.152899  	32.202402 
2968.589777  	32.216151 
2970.026655  	32.183976 
2971.463533  	32.178569 
2972.900411  	32.190672 
2974.337289  	32.199164 
2975.774166  	32.186820 
2977.211044  	32.181019 
2978.647922  	32.230717 
2980.084800  	32.243328 
2981.521678  	32.203523 
2982.958556  	32.181405 
2984.395434  	32.165112 
2985.832312  	32.193656 
2987.269190  	32.231620 
2988.706068  	32.212058 
2990.142946  	32.222408 
2991.579824  	32.250213 
2993.016701  	32.241128 
2994.453579  	32.245811 
2995.890457  	32.259146 
2997.327335  	32.274217 
2998.764213  	32.278312 
3000.201091  	32.254395 
3001.637969  	32.250111 
3003.074847  	32.241850 
3004.511725  	32.221352 
3005.948603  	32.232364 
3007.385481  	32.238704 
3008.822359  	32.238955 
3010.259236  	32.237074 
3011.696114  	32.225028 
3013.132992  	32.229489 
3014.569870  	32.203389 
3016.006748  	32.183465 
3017.443626  	32.230035 
3018.880504  	32.240082 
3020.317382  	32.218442 
3021.754260  	32.204795 
3023.191138  	32.163773 
3024.628016  	32.170649 
3026.064894  	32.202172 
3027.501771  	32.174877 
3028.938649  	32.157654 
3030.375527  	32.181534 
3031.812405  	32.229608 
3033.249283  	32.250872 
3034.686161  	32.205638 
3036.123039  	32.185867 
3037.559917  	32.210096 
3038.996795  	32.252893 
3040.433673  	32.304622 
3041.870551  	32.268660 
3043.307429  	32.217868 
3044.744306  	32.244984 
3046.181184  	32.256212 
3047.618062  	32.271274 
3049.054940  	32.276850 
3050.491818  	32.227471 
3051.928696  	32.242747 
3053.365574  	32.274813 
3054.802452  	32.265926 
3056.239330  	32.326201 
3057.676208  	32.381164 
3059.113086  	32.355924 
3060.549964  	32.320430 
3061.986842  	32.298418 
3063.423719  	32.321030 
3064.860597  	32.362398 
3066.297475  	32.369753 
3067.734353  	32.367123 
3069.171231  	32.344832 
3070.608109  	32.330756 
3072.044987  	32.374743 
3073.481865  	32.428705 
3074.918743  	32.444302 
3076.355621  	32.431648 
3077.792499  	32.442199 
3079.229377  	32.463655 
3080.666254  	32.460037 
3082.103132  	32.509230 
3083.540010  	32.570747 
3084.976888  	32.554632 
3086.413766  	32.539507 
3087.850644  	32.521599 
3089.287522  	32.507411 
3090.724400  	32.569061 
3092.161278  	32.589544 
3093.598156  	32.543338 
3095.035034  	32.537192 
3096.471912  	32.544965 
3097.908789  	32.547686 
3099.345667  	32.531385 
3100.782545  	32.518290 
3102.219423  	32.575692 
3103.656301  	32.593748 
3105.093179  	32.554758 
3106.530057  	32.583934 
3107.966935  	32.617619 
3109.403813  	32.619439 
3110.840691  	32.650325 
3112.277569  	32.664130 
3113.714447  	32.634384 
3115.151324  	32.599655 
3116.588202  	32.585496 
3118.025080  	32.585368 
3119.461958  	32.588873 
3120.898836  	32.618167 
3122.335714  	32.639169 
3123.772592  	32.623014 
3125.209470  	32.599023 
3126.646348  	32.573439 
3128.083226  	32.595954 
3129.520104  	32.631653 
3130.956982  	32.569690 
3132.393859  	32.504276 
3133.830737  	32.503061 
3135.267615  	32.498865 
3136.704493  	32.533375 
3138.141371  	32.590266 
3139.578249  	32.580759 
3141.015127  	32.532191 
3142.452005  	32.520096 
3143.888883  	32.567522 
3145.325761  	32.578214 
3146.762639  	32.523542 
3148.199517  	32.515348 
3149.636394  	32.521546 
3151.073272  	32.503136 
3152.510150  	32.524982 
3153.947028  	32.532565 
3155.383906  	32.503172 
3156.820784  	32.502283 
3158.257662  	32.520122 
3159.694540  	32.529754 
3161.131418  	32.536498 
3162.568296  	32.563597 
3164.005174  	32.551531 
3165.442052  	32.462739 
3166.878929  	32.455607 
3168.315807  	32.536025 
3169.752685  	32.557881 
3171.189563  	32.574519 
3172.626441  	32.604619 
3174.063319  	32.600788 
3175.500197  	32.593927 
3176.937075  	32.562798 
3178.373953  	32.549367 
3179.810831  	32.598372 
3181.247709  	32.626517 
3182.684587  	32.626692 
3184.121464  	32.611035 
3185.558342  	32.582767 
3186.995220  	32.593442 
3188.432098  	32.611902 
3189.868976  	32.616939 
3191.305854  	32.647976 
3192.742732  	32.709418 
3194.179610  	32.738458 
3195.616488  	32.661674 
3197.053366  	32.611923 
3198.490244  	32.675235 
3199.927122  	32.711336 
3201.363999  	32.782854 
3202.800877  	32.882212 
3204.237755  	32.831007 
3205.674633  	32.816816 
3207.111511  	32.923069 
3208.548389  	32.942720 
3209.985267  	32.940562 
3211.422145  	32.971211 
3212.859023  	32.973321 
3214.295901  	33.017338 
3215.732779  	33.061662 
3217.169657  	33.042699 
3218.606534  	33.050606 
3220.043412  	33.122795 
3221.480290  	33.192607 
3222.917168  	33.219704 
3224.354046  	33.231825 
3225.790924  	33.193745 
3227.227802  	33.129420 
3228.664680  	33.186236 
3230.101558  	33.286514 
3231.538436  	33.339894 
3232.975314  	33.431356 
3234.412192  	33.466483 
3235.849069  	33.448108 
3237.285947  	33.503608 
3238.722825  	33.519841 
3240.159703  	33.483752 
3241.596581  	33.482517 
3243.033459  	33.498172 
3244.470337  	33.579780 
3245.907215  	33.684067 
3247.344093  	33.748796 
3248.780971  	33.797071 
3250.217849  	33.750187 
3251.654727  	33.679303 
3253.091604  	33.704988 
3254.528482  	33.755706 
3255.965360  	33.842094 
3257.402238  	33.915965 
3258.839116  	33.878172 
3260.275994  	33.857803 
3261.712872  	33.917087 
3263.149750  	33.989970 
3264.586628  	34.059138 
3266.023506  	34.096897 
3267.460384  	34.109929 
3268.897262  	34.098461 
3270.334139  	34.067344 
3271.771017  	34.095924 
3273.207895  	34.182179 
3274.644773  	34.264633 
3276.081651  	34.303884 
3277.518529  	34.282067 
3278.955407  	34.231478 
3280.392285  	34.186548 
3281.829163  	34.215375 
3283.266041  	34.298920 
3284.702919  	34.288726 
3286.139797  	34.265637 
3287.576674  	34.329686 
3289.013552  	34.338417 
3290.450430  	34.320651 
3291.887308  	34.385650 
3293.324186  	34.446543 
3294.761064  	34.455068 
3296.197942  	34.445657 
3297.634820  	34.439472 
3299.071698  	34.438678 
3300.508576  	34.436535 
3301.945454  	34.454331 
3303.382332  	34.459158 
3304.819210  	34.426169 
3306.256087  	34.404055 
3307.692965  	34.397973 
3309.129843  	34.415677 
3310.566721  	34.439489 
3312.003599  	34.447314 
3313.440477  	34.505534 
3314.877355  	34.553581 
3316.314233  	34.525149 
3317.751111  	34.507849 
3319.187989  	34.476011 
3320.624867  	34.434252 
3322.061745  	34.469737 
3323.498622  	34.491024 
3324.935500  	34.454627 
3326.372378  	34.446557 
3327.809256  	34.486123 
3329.246134  	34.535165 
3330.683012  	34.525316 
3332.119890  	34.500876 
3333.556768  	34.528108 
3334.993646  	34.516404 
3336.430524  	34.481401 
3337.867402  	34.511474 
3339.304280  	34.552103 
3340.741157  	34.570551 
3342.178035  	34.585589 
3343.614913  	34.607220 
3345.051791  	34.611105 
3346.488669  	34.574455 
3347.925547  	34.555384 
3349.362425  	34.519380 
3350.799303  	34.446599 
3352.236181  	34.454890 
3353.673059  	34.476525 
3355.109937  	34.455189 
3356.546815  	34.499219 
3357.983692  	34.553068 
3359.420570  	34.582249 
3360.857448  	34.604776 
3362.294326  	34.571242 
3363.731204  	34.581483 
3365.168082  	34.641242 
3366.604960  	34.631717 
3368.041838  	34.593649 
3369.478716  	34.554298 
3370.915594  	34.555140 
3372.352472  	34.587640 
3373.789350  	34.522322 
3375.226227  	34.494093 
3376.663105  	34.586361 
3378.099983  	34.613669 
3379.536861  	34.619125 
3380.973739  	34.657975 
3382.410617  	34.664187 
3383.847495  	34.696807 
3385.284373  	34.691542 
3386.721251  	34.610058 
3388.158129  	34.608902 
3389.595007  	34.666933 
3391.031885  	34.700359 
3392.468762  	34.737527 
3393.905640  	34.758737 
3395.342518  	34.714524 
3396.779396  	34.631294 
3398.216274  	34.642924 
3399.653152  	34.748863 
3401.090030  	34.753343 
3402.526908  	34.717153 
3403.963786  	34.771802 
3405.400664  	34.774277 
3406.837542  	34.754976 
3408.274420  	34.821810 
3409.711297  	34.773076 
3411.148175  	34.633376 
3412.585053  	34.686897 
3414.021931  	34.825914 
3415.458809  	34.837595 
3416.895687  	34.795859 
3418.332565  	34.759867 
3419.769443  	34.798377 
3421.206321  	34.963666 
3422.643199  	35.026608 
3424.080077  	34.921929 
3425.516955  	34.886931 
3426.953832  	34.935248 
3428.390710  	34.936156 
3429.827588  	34.917216 
3431.264466  	34.950176 
3432.701344  	35.004579 
3434.138222  	34.996582 
3435.575100  	34.986121 
3437.011978  	35.061284 
3438.448856  	35.086630 
3439.885734  	34.991471 
3441.322612  	34.958216 
3442.759490  	35.052414 
3444.196367  	35.079194 
3445.633245  	34.999940 
3447.070123  	35.063192 
3448.507001  	35.235185 
3449.943879  	35.216591 
3451.380757  	35.110320 
3452.817635  	35.072559 
3454.254513  	35.076984 
3455.691391  	35.155849 
3457.128269  	35.227288 
3458.565147  	35.201665 
3460.002025  	35.160730 
3461.438902  	35.138697 
3462.875780  	35.209110 
3464.312658  	35.335664 
3465.749536  	35.344807 
3467.186414  	35.333925 
3468.623292  	35.370274 
3470.060170  	35.384176 
3471.497048  	35.410809 
3472.933926  	35.380657 
3474.370804  	35.348939 
3475.807682  	35.471852 
3477.244560  	35.571357 
3478.681437  	35.546654 
3480.118315  	35.502748 
3481.555193  	35.511477 
3482.992071  	35.619717 
3484.428949  	35.623274 
3485.865827  	35.466580 
3487.302705  	35.454632 
3488.739583  	35.574365 
3490.176461  	35.608795 
3491.613339  	35.601589 
3493.050217  	35.576893 
3494.487095  	35.529994 
3495.923972  	35.552889 
3497.360850  	35.671895 
3498.797728  	35.729360 
3500.234606  	35.613488 
3501.671484  	35.543459 
3503.108362  	35.697587 
3504.545240  	35.871908 
3505.982118  	35.884110 
3507.418996  	35.803228 
3508.855874  	35.795735 
3510.292752  	35.915195 
3511.729630  	35.955738 
3513.166507  	35.900276 
3514.603385  	35.879112 
3516.040263  	35.851333 
3517.477141  	35.847779 
3518.914019  	35.901354 
3520.350897  	35.885406 
3521.787775  	35.825488 
3523.224653  	35.884830 
3524.661531  	36.043012 
3526.098409  	36.102231 
3527.535287  	36.081571 
3528.972165  	36.124627 
3530.409043  	36.177607 
3531.845920  	36.207759 
3533.282798  	36.228146 
3534.719676  	36.177509 
3536.156554  	36.124148 
3537.593432  	36.098805 
3539.030310  	36.067207 
3540.467188  	36.095247 
3541.904066  	36.114533 
3543.340944  	36.103692 
3544.777822  	36.159486 
3546.214700  	36.230233 
3547.651578  	36.367343 
3549.088455  	36.464119 
3550.525333  	36.309653 
3551.962211  	36.227461 
3553.399089  	36.372844 
3554.835967  	36.366511 
3556.272845  	36.306490 
3557.709723  	36.382370 
3559.146601  	36.425583 
3560.583479  	36.388289 
3562.020357  	36.363511 
3563.457235  	36.285475 
3564.894113  	36.037123 
3566.330990  	35.949618 
3567.767868  	36.525356 
3569.204746  	36.976012 
3570.641624  	36.832179 
3572.078502  	36.678165 
3573.515380  	36.665857 
3574.952258  	36.721871 
3576.389136  	36.778693 
3577.826014  	36.758514 
3579.262892  	36.743724 
3580.699770  	36.755414 
3582.136648  	36.748597 
3583.573525  	36.753284 
3585.010403  	36.679030 
3586.447281  	36.566149 
3587.884159  	36.876003 
3589.321037  	37.310008 
3590.757915  	37.206313 
3592.194793  	37.010409 
3593.631671  	37.007051 
3595.068549  	37.144068 
3596.505427  	37.204539 
3597.942305  	37.165349 
3599.379183  	37.128953 
3600.816060  	37.181479 
3602.252938  	37.316897 
3603.689816  	37.328070 
3605.126694  	37.201885 
3606.563572  	37.087092 
3608.000450  	37.143274 
3609.437328  	37.415540 
3610.874206  	37.508818 
3612.311084  	37.353228 
3613.747962  	37.515418 
3615.184840  	37.739878 
3616.621718  	37.425579 
3618.058595  	37.263512 
3619.495473  	37.451433 
3620.932351  	37.884280 
3622.369229  	37.875309 
3623.806107  	37.689057 
3625.242985  	37.597228 
3626.679863  	37.366696 
3628.116741  	37.083277 
3629.553619  	37.997408 
3630.990497  	38.733124 
3632.427375  	38.049012 
3633.864253  	37.896401 
3635.301130  	38.066277 
3636.738008  	37.711497 
3638.174886  	37.717829 
3639.611764  	37.785249 
3641.048642  	37.697513 
3642.485520  	37.697320 
3643.922398  	37.773483 
3645.359276  	37.553830 
3646.796154  	37.191057 
3648.233032  	37.416523 
3649.669910  	37.739532 
3651.106788  	38.514825 
3652.543665  	38.763530 
3653.980543  	37.896322 
3655.417421  	37.600714 
3656.854299  	38.014287 
3658.291177  	38.402404 
3659.728055  	37.983935 
3661.164933  	37.860489 
3662.601811  	37.842502 
3664.038689  	37.799385 
3665.475567  	37.694502 
3666.912445  	37.542551 
3668.349323  	37.144282 
3669.786200  	37.187108 
3671.223078  	38.134897 
3672.659956  	37.971859 
3674.096834  	37.105193 
3675.533712  	37.409522 
3676.970590  	38.735163 
3678.407468  	38.037207 
3679.844346  	37.735269 
3681.281224  	37.793085 
3682.718102  	37.625437 
3684.154980  	37.584930 
3685.591858  	37.487721 
3687.028735  	36.987832 
3688.465613  	36.937874 
3689.902491  	37.483117 
3691.339369  	37.655103 
3692.776247  	37.749296 
3694.213125  	37.621047 
3695.650003  	37.468284 
3697.086881  	37.533865 
3698.523759  	37.488224 
3699.960637  	37.235826 
3701.397515  	37.214954 
3702.834393  	37.437829 
3704.271270  	37.450267 
3705.708148  	37.292082 
3707.145026  	37.186412 
3708.581904  	37.130488 
3710.018782  	37.016905 
3711.455660  	37.117050 
3712.892538  	37.484348 
3714.329416  	37.587448 
3715.766294  	37.326761 
3717.203172  	37.159389 
3718.640050  	37.231465 
3720.076928  	37.175904 
3721.513805  	37.039801 
3722.950683  	37.135481 
3724.387561  	37.097723 
3725.824439  	36.977242 
3727.261317  	37.244259 
3728.698195  	37.267347 
3730.135073  	36.779641 
3731.571951  	36.621895 
3733.008829  	37.016237 
3734.445707  	36.872025 
3735.882585  	37.000989 
3737.319463  	37.562031 
3738.756340  	37.248345 
3740.193218  	37.050362 
3741.630096  	36.920680 
3743.066974  	36.169349 
3744.503852  	36.337716 
3745.940730  	37.753696 
3747.377608  	37.013441 
3748.814486  	36.242111 
3750.251364  	36.548487 
3751.688242  	37.026456 
3753.125120  	37.469812 
3754.561998  	37.346714 
3755.998875  	36.928371 
3757.435753  	36.880979 
3758.872631  	36.931964 
3760.309509  	36.979069 
3761.746387  	37.127361 
3763.183265  	36.808084 
3764.620143  	36.551375 
3766.057021  	36.968633 
3767.493899  	36.897077 
3768.930777  	36.485504 
3770.367655  	36.788770 
3771.804533  	37.152508 
3773.241411  	37.011237 
3774.678288  	36.845710 
3776.115166  	36.754016 
3777.552044  	36.561414 
3778.988922  	36.510628 
3780.425800  	36.970391 
3781.862678  	37.006789 
3783.299556  	36.644505 
3784.736434  	36.734953 
3786.173312  	36.910986 
3787.610190  	36.815812 
3789.047068  	36.895361 
3790.483946  	36.857712 
3791.920823  	36.695016 
3793.357701  	36.619223 
3794.794579  	36.282515 
3796.231457  	36.211996 
3797.668335  	36.744690 
3799.105213  	36.447293 
3800.542091  	35.772398 
3801.978969  	36.565864 
3803.415847  	37.494773 
3804.852725  	36.555099 
3806.289603  	35.938057 
3807.726481  	36.923072 
3809.163358  	37.246733 
3810.600236  	36.675288 
3812.037114  	36.589198 
3813.473992  	36.280745 
3814.910870  	35.595771 
3816.347748  	36.131158 
3817.784626  	36.896254 
3819.221504  	36.013665 
3820.658382  	35.475920 
3822.095260  	36.926663 
3823.532138  	37.261326 
3824.969016  	36.442037 
3826.405893  	36.343490 
3827.842771  	36.824765 
3829.279649  	36.539128 
3830.716527  	36.125685 
3832.153405  	36.209908 
3833.590283  	36.220879 
3835.027161  	36.057205 
3836.464039  	36.046164 
3837.900917  	36.181089 
3839.337795  	36.489475 
3840.774673  	36.680396 
3842.211551  	36.567184 
3843.648428  	36.490098 
3845.085306  	36.665843 
3846.522184  	36.668101 
3847.959062  	36.356698 
3849.395940  	36.121251 
3850.832818  	35.730591 
3852.269696  	35.168047 
3853.706574  	36.042108 
3855.143452  	37.349155 
3856.580330  	36.892216 
3858.017208  	36.593003 
3859.454086  	36.409192 
3860.890963  	36.211153 
3862.327841  	36.214667 
3863.764719  	36.107842 
3865.201597  	36.317444 
3866.638475  	36.670817 
3868.075353  	36.096038 
3869.512231  	35.735602 
3870.949109  	36.620825 
3872.385987  	36.485663 
3873.822865  	36.196175 
3875.259743  	36.701539 
3876.696621  	36.698892 
3878.133498  	36.143919 
3879.570376  	35.850635 
3881.007254  	36.309858 
3882.444132  	36.578194 
3883.881010  	36.076306 
3885.317888  	35.984863 
3886.754766  	36.881190 
3888.191644  	36.691087 
3889.628522  	36.053132 
3891.065400  	36.065815 
3892.502278  	36.509178 
3893.939156  	36.545336 
3895.376033  	36.347356 
3896.812911  	36.062282 
3898.249789  	35.821322 
3899.686667  	35.955681 
3901.123545  	36.210414 
3902.560423  	36.159375 
3903.997301  	36.180116 
3905.434179  	36.545656 
3906.871057  	36.670659 
3908.307935  	36.463420 
3909.744813  	36.251487 
3911.181691  	36.204726 
3912.618568  	36.236126 
3914.055446  	36.227344 
3915.492324  	36.114712 
3916.929202  	36.141097 
3918.366080  	36.220866 
3919.802958  	36.233420 
3921.239836  	36.258107 
3922.676714  	36.167246 
3924.113592  	36.117756 
3925.550470  	36.302220 
3926.987348  	36.344439 
3928.424226  	36.189249 
3929.861103  	36.132040 
3931.297981  	36.169782 
3932.734859  	36.248482 
3934.171737  	36.327706 
3935.608615  	36.263580 
3937.045493  	36.159518 
3938.482371  	36.204734 
3939.919249  	36.234807 
3941.356127  	36.124869 
3942.793005  	36.155168 
3944.229883  	36.309542 
3945.666761  	36.251573 
3947.103638  	36.120582 
3948.540516  	36.156954 
3949.977394  	36.253186 
3951.414272  	36.279531 
3952.851150  	36.262203 
3954.288028  	36.240220 
3955.724906  	36.221444 
3957.161784  	36.181240 
3958.598662  	36.152944 
3960.035540  	36.124500 
3961.472418  	36.109312 
3962.909296  	36.191412 
3964.346173  	36.242526 
3965.783051  	36.186901 
3967.219929  	36.142657 
3968.656807  	36.095764 
3970.093685  	36.066987 
3971.530563  	36.100921 
3972.967441  	36.100052 
3974.404319  	36.090060 
3975.841197  	36.122867 
3977.278075  	36.135433 
3978.714953  	36.116560 
3980.151831  	36.088603 
3981.588708  	36.102632 
3983.025586  	36.127838 
3984.462464  	36.087948 
3985.899342  	36.089554 
3987.336220  	36.131751 
3988.773098  	36.113155 
3990.209976  	36.128064 
3991.646854  	36.153839 
3993.083732  	36.104288 
3994.520610  	36.095987 
3995.957488  	36.124521 
3997.394366  	36.099878 
3998.831244  	36.078143 
4000.268121  	36.088013 