##TITLE=No Description
##DATA TYPE=INFRARED SPECTRUM
##XUNITS=1/CM
##YUNITS=%T
399.452061  	59.585637 
400.888939  	58.229174 
402.325817  	58.866509 
403.762695  	58.981915 
405.199573  	59.601676 
406.636451  	61.153316 
408.073328  	59.760757 
409.510206  	59.342577 
410.947084  	60.204314 
412.383962  	59.759596 
413.820840  	59.774859 
415.257718  	59.244538 
416.694596  	59.529620 
418.131474  	61.221644 
419.568352  	59.328054 
421.005230  	58.759376 
422.442108  	59.450671 
423.878986  	59.452974 
425.315863  	59.854521 
426.752741  	58.716871 
428.189619  	58.002762 
429.626497  	59.210705 
431.063375  	59.486677 
432.500253  	59.669239 
433.937131  	59.304968 
435.374009  	58.150766 
436.810887  	58.698340 
438.247765  	58.577618 
439.684643  	58.091272 
441.121521  	58.925535 
442.558398  	58.673713 
443.995276  	58.675066 
445.432154  	59.140636 
446.869032  	58.640465 
448.305910  	59.268175 
449.742788  	59.500984 
451.179666  	58.744610 
452.616544  	58.672404 
454.053422  	58.175215 
455.490300  	58.203950 
456.927178  	58.865368 
458.364056  	58.763010 
459.800933  	59.378067 
461.237811  	59.302207 
462.674689  	58.656839 
464.111567  	59.272020 
465.548445  	59.222711 
466.985323  	59.283499 
468.422201  	60.316282 
469.859079  	60.005974 
471.295957  	59.816830 
472.732835  	60.466072 
474.169713  	60.315900 
475.606591  	60.196331 
477.043469  	60.345055 
478.480346  	60.730617 
479.917224  	61.010969 
481.354102  	60.490315 
482.790980  	60.263345 
484.227858  	60.451880 
485.664736  	60.424557 
487.101614  	60.497645 
488.538492  	60.309351 
489.975370  	60.207745 
491.412248  	60.245154 
492.849126  	59.943789 
494.286004  	59.955872 
495.722881  	59.770065 
497.159759  	59.205293 
498.596637  	59.179510 
500.033515  	59.018076 
501.470393  	58.838327 
502.907271  	59.119812 
504.344149  	59.059151 
505.781027  	59.194287 
507.217905  	59.506596 
508.654783  	59.568418 
510.091661  	59.942478 
511.528539  	60.106345 
512.965416  	60.178532 
514.402294  	60.658016 
515.839172  	60.726789 
517.276050  	60.684991 
518.712928  	60.844287 
520.149806  	60.716404 
521.586684  	60.816391 
523.023562  	60.938022 
524.460440  	60.829974 
525.897318  	60.921945 
527.334196  	60.965692 
528.771074  	61.122067 
530.207951  	61.441665 
531.644829  	61.415994 
533.081707  	61.340160 
534.518585  	61.385172 
535.955463  	61.458834 
537.392341  	61.574737 
538.829219  	61.508408 
540.266097  	61.587443 
541.702975  	61.803620 
543.139853  	61.665514 
544.576731  	61.510704 
546.013609  	61.510243 
547.450486  	61.560010 
548.887364  	61.660402 
550.324242  	61.564630 
551.761120  	61.484127 
553.197998  	61.437774 
554.634876  	61.232685 
556.071754  	61.382229 
557.508632  	61.803959 
558.945510  	62.060923 
560.382388  	62.269873 
561.819266  	62.384264 
563.256144  	62.463203 
564.693021  	62.601331 
566.129899  	62.655635 
567.566777  	62.639542 
569.003655  	62.530673 
570.440533  	62.511525 
571.877411  	62.619011 
573.314289  	62.517300 
574.751167  	62.489937 
576.188045  	62.650850 
577.624923  	62.606012 
579.061801  	62.524573 
580.498679  	62.452137 
581.935556  	62.384278 
583.372434  	62.476693 
584.809312  	62.407979 
586.246190  	62.247531 
587.683068  	62.247165 
589.119946  	62.180165 
590.556824  	62.109829 
591.993702  	62.011656 
593.430580  	61.762899 
594.867458  	61.545331 
596.304336  	61.320809 
597.741214  	61.332374 
599.178091  	61.833934 
600.614969  	62.512934 
602.051847  	63.142488 
603.488725  	63.560935 
604.925603  	63.748123 
606.362481  	63.927223 
607.799359  	63.956663 
609.236237  	63.920038 
610.673115  	63.967773 
612.109993  	63.968175 
613.546871  	63.952202 
614.983749  	63.939038 
616.420626  	63.900280 
617.857504  	63.890965 
619.294382  	63.871203 
620.731260  	63.852944 
622.168138  	63.859040 
623.605016  	63.723993 
625.041894  	63.594657 
626.478772  	63.569640 
627.915650  	63.558523 
629.352528  	63.668265 
630.789406  	63.653895 
632.226284  	63.470111 
633.663161  	63.446149 
635.100039  	63.467267 
636.536917  	63.492020 
637.973795  	63.593014 
639.410673  	63.675340 
640.847551  	63.779454 
642.284429  	63.852439 
643.721307  	63.923826 
645.158185  	64.125041 
646.595063  	64.256994 
648.031941  	64.404075 
649.468819  	64.635351 
650.905696  	64.785615 
652.342574  	64.893421 
653.779452  	64.978742 
655.216330  	65.013754 
656.653208  	65.077341 
658.090086  	65.146188 
659.526964  	65.195033 
660.963842  	65.242160 
662.400720  	65.245321 
663.837598  	65.331726 
665.274476  	65.522347 
666.711354  	65.766155 
668.148231  	66.278678 
669.585109  	66.785251 
671.021987  	67.054987 
672.458865  	67.412592 
673.895743  	67.656226 
675.332621  	67.871096 
676.769499  	68.038618 
678.206377  	68.144988 
679.643255  	68.263282 
681.080133  	68.403231 
682.517011  	68.486476 
683.953889  	68.589309 
685.390766  	68.693501 
686.827644  	68.800634 
688.264522  	68.896015 
689.701400  	68.870680 
691.138278  	68.967299 
692.575156  	69.127836 
694.012034  	69.144339 
695.448912  	69.207144 
696.885790  	69.289568 
698.322668  	69.336186 
699.759546  	69.391096 
701.196424  	69.444221 
702.633301  	69.529706 
704.070179  	69.579575 
705.507057  	69.605321 
706.943935  	69.672982 
708.380813  	69.708135 
709.817691  	69.728727 
711.254569  	69.774979 
712.691447  	69.910133 
714.128325  	69.881735 
715.565203  	69.878229 
717.002081  	69.911870 
718.438959  	69.974769 
719.875837  	69.962043 
721.312714  	69.954966 
722.749592  	70.060363 
724.186470  	70.113729 
725.623348  	70.122979 
727.060226  	70.209762 
728.497104  	70.261427 
729.933982  	70.309598 
731.370860  	70.338739 
732.807738  	70.373881 
734.244616  	70.435172 
735.681494  	70.513440 
737.118372  	70.577323 
738.555249  	70.529654 
739.992127  	70.463234 
741.429005  	70.582536 
742.865883  	70.703162 
744.302761  	70.697434 
745.739639  	70.694702 
747.176517  	70.655640 
748.613395  	70.596898 
750.050273  	70.572764 
751.487151  	70.571909 
752.924029  	70.693431 
754.360907  	70.874506 
755.797784  	71.012579 
757.234662  	71.159663 
758.671540  	71.250738 
760.108418  	71.291922 
761.545296  	71.363808 
762.982174  	71.432464 
764.419052  	71.522831 
765.855930  	71.609624 
767.292808  	71.665259 
768.729686  	71.730225 
770.166564  	71.725652 
771.603442  	71.702290 
773.040319  	71.755540 
774.477197  	71.794207 
775.914075  	71.835201 
777.350953  	71.892979 
778.787831  	71.897542 
780.224709  	71.893714 
781.661587  	71.893415 
783.098465  	71.900332 
784.535343  	71.955759 
785.972221  	72.066004 
787.409099  	72.228196 
788.845977  	72.346330 
790.282854  	72.425660 
791.719732  	72.581352 
793.156610  	72.719833 
794.593488  	72.828321 
796.030366  	72.995054 
797.467244  	73.123614 
798.904122  	73.202608 
800.341000  	73.267717 
801.777878  	73.299742 
803.214756  	73.344769 
804.651634  	73.349545 
806.088512  	73.285739 
807.525389  	73.218201 
808.962267  	73.145566 
810.399145  	73.085093 
811.836023  	72.969487 
813.272901  	72.802070 
814.709779  	72.841028 
816.146657  	73.160431 
817.583535  	73.591076 
819.020413  	73.989115 
820.457291  	74.315235 
821.894169  	74.661751 
823.331047  	74.976525 
824.767924  	75.200941 
826.204802  	75.498035 
827.641680  	75.775656 
829.078558  	75.906596 
830.515436  	76.070863 
831.952314  	76.306813 
833.389192  	76.573092 
834.826070  	76.823697 
836.262948  	76.942640 
837.699826  	77.029204 
839.136704  	77.158318 
840.573582  	77.269588 
842.010459  	77.389046 
843.447337  	77.499762 
844.884215  	77.609100 
846.321093  	77.708833 
847.757971  	77.739728 
849.194849  	77.799304 
850.631727  	77.864144 
852.068605  	77.842106 
853.505483  	77.833476 
854.942361  	77.828831 
856.379239  	77.811354 
857.816117  	77.845643 
859.252994  	77.858927 
860.689872  	77.823185 
862.126750  	77.776495 
863.563628  	77.755908 
865.000506  	77.778317 
866.437384  	77.757211 
867.874262  	77.722494 
869.311140  	77.726157 
870.748018  	77.732356 
872.184896  	77.811045 
873.621774  	77.875981 
875.058652  	77.857094 
876.495529  	77.957783 
877.932407  	78.154531 
879.369285  	78.354114 
880.806163  	78.598119 
882.243041  	78.790614 
883.679919  	78.983115 
885.116797  	79.250719 
886.553675  	79.493843 
887.990553  	79.750746 
889.427431  	79.997347 
890.864309  	80.223038 
892.301187  	80.537238 
893.738064  	80.815529 
895.174942  	81.056680 
896.611820  	81.378192 
898.048698  	81.653110 
899.485576  	81.898718 
900.922454  	82.165615 
902.359332  	82.382344 
903.796210  	82.600435 
905.233088  	82.767452 
906.669966  	82.856239 
908.106844  	82.973316 
909.543722  	83.082873 
910.980599  	83.217985 
912.417477  	83.449884 
913.854355  	83.693193 
915.291233  	83.869951 
916.728111  	83.939126 
918.164989  	83.956365 
919.601867  	83.960067 
921.038745  	83.901368 
922.475623  	83.844077 
923.912501  	83.776205 
925.349379  	83.677919 
926.786257  	83.637488 
928.223134  	83.535974 
929.660012  	83.333648 
931.096890  	83.184523 
932.533768  	83.077841 
933.970646  	82.986066 
935.407524  	82.881679 
936.844402  	82.749698 
938.281280  	82.704862 
939.718158  	82.713594 
941.155036  	82.689351 
942.591914  	82.636450 
944.028792  	82.531086 
945.465670  	82.452877 
946.902547  	82.415385 
948.339425  	82.363208 
949.776303  	82.388776 
951.213181  	82.443337 
952.650059  	82.447981 
954.086937  	82.457397 
955.523815  	82.427543 
956.960693  	82.415992 
958.397571  	82.477327 
959.834449  	82.482542 
961.271327  	82.443128 
962.708205  	82.397447 
964.145082  	82.371788 
965.581960  	82.448476 
967.018838  	82.509543 
968.455716  	82.486871 
969.892594  	82.461158 
971.329472  	82.418829 
972.766350  	82.386786 
974.203228  	82.348063 
975.640106  	82.264363 
977.076984  	82.226505 
978.513862  	82.202151 
979.950740  	82.132799 
981.387617  	82.051245 
982.824495  	81.953962 
984.261373  	81.894555 
985.698251  	81.845040 
987.135129  	81.732366 
988.572007  	81.635439 
990.008885  	81.551359 
991.445763  	81.453304 
992.882641  	81.364870 
994.319519  	81.225567 
995.756397  	81.083739 
997.193275  	80.971328 
998.630152  	80.795461 
1000.067030  	80.607758 
1001.503908  	80.449970 
1002.940786  	80.286078 
1004.377664  	80.135907 
1005.814542  	79.954762 
1007.251420  	79.732005 
1008.688298  	79.517237 
1010.125176  	79.289796 
1011.562054  	79.057084 
1012.998932  	78.812641 
1014.435810  	78.536217 
1015.872687  	78.282801 
1017.309565  	78.047664 
1018.746443  	77.813421 
1020.183321  	77.609581 
1021.620199  	77.379166 
1023.057077  	77.098932 
1024.493955  	76.810521 
1025.930833  	76.477898 
1027.367711  	76.115140 
1028.804589  	75.772338 
1030.241467  	75.380406 
1031.678345  	74.931817 
1033.115222  	74.502197 
1034.552100  	74.073364 
1035.988978  	73.703900 
1037.425856  	73.541378 
1038.862734  	73.627453 
1040.299612  	73.954489 
1041.736490  	74.413761 
1043.173368  	74.790323 
1044.610246  	74.936969 
1046.047124  	74.827768 
1047.484002  	74.506268 
1048.920880  	74.079157 
1050.357757  	73.694420 
1051.794635  	73.494534 
1053.231513  	73.484787 
1054.668391  	73.560461 
1056.105269  	73.669310 
1057.542147  	73.770487 
1058.979025  	73.869202 
1060.415903  	74.047921 
1061.852781  	74.313980 
1063.289659  	74.623538 
1064.726537  	74.940675 
1066.163415  	75.201209 
1067.600292  	75.414990 
1069.037170  	75.637500 
1070.474048  	75.816826 
1071.910926  	75.958489 
1073.347804  	76.125742 
1074.784682  	76.270695 
1076.221560  	76.401443 
1077.658438  	76.535358 
1079.095316  	76.621486 
1080.532194  	76.720511 
1081.969072  	76.831269 
1083.405950  	76.908809 
1084.842827  	77.033831 
1086.279705  	77.138093 
1087.716583  	77.146983 
1089.153461  	77.169519 
1090.590339  	77.170466 
1092.027217  	77.084348 
1093.464095  	76.984945 
1094.900973  	76.881537 
1096.337851  	76.742909 
1097.774729  	76.588632 
1099.211607  	76.449931 
1100.648485  	76.300968 
1102.085362  	76.095231 
1103.522240  	75.863322 
1104.959118  	75.594426 
1106.395996  	75.251253 
1107.832874  	74.897274 
1109.269752  	74.542435 
1110.706630  	74.152919 
1112.143508  	73.746578 
1113.580386  	73.290699 
1115.017264  	72.823039 
1116.454142  	72.515333 
1117.891020  	72.362717 
1119.327897  	72.217267 
1120.764775  	72.110300 
1122.201653  	72.083862 
1123.638531  	72.056959 
1125.075409  	72.010394 
1126.512287  	71.959511 
1127.949165  	71.895537 
1129.386043  	71.805961 
1130.822921  	71.653054 
1132.259799  	71.423395 
1133.696677  	71.146252 
1135.133555  	70.850963 
1136.570432  	70.567676 
1138.007310  	70.327498 
1139.444188  	70.144897 
1140.881066  	69.948699 
1142.317944  	69.645718 
1143.754822  	69.270626 
1145.191700  	68.848182 
1146.628578  	68.375123 
1148.065456  	67.936116 
1149.502334  	67.531010 
1150.939212  	67.155154 
1152.376090  	66.923245 
1153.812967  	66.844506 
1155.249845  	66.887075 
1156.686723  	67.008139 
1158.123601  	67.125659 
1159.560479  	67.249274 
1160.997357  	67.350268 
1162.434235  	67.421741 
1163.871113  	67.530374 
1165.307991  	67.622181 
1166.744869  	67.676360 
1168.181747  	67.718252 
1169.618625  	67.715347 
1171.055502  	67.706519 
1172.492380  	67.670505 
1173.929258  	67.557865 
1175.366136  	67.458535 
1176.803014  	67.402729 
1178.239892  	67.348208 
1179.676770  	67.257380 
1181.113648  	67.107068 
1182.550526  	66.941443 
1183.987404  	66.716880 
1185.424282  	66.424234 
1186.861160  	66.175399 
1188.298038  	65.926415 
1189.734915  	65.670958 
1191.171793  	65.478284 
1192.608671  	65.276389 
1194.045549  	65.106343 
1195.482427  	64.988973 
1196.919305  	64.836494 
1198.356183  	64.714409 
1199.793061  	64.605411 
1201.229939  	64.471003 
1202.666817  	64.372914 
1204.103695  	64.263696 
1205.540573  	64.198823 
1206.977450  	64.218986 
1208.414328  	64.228096 
1209.851206  	64.286158 
1211.288084  	64.385687 
1212.724962  	64.479887 
1214.161840  	64.607902 
1215.598718  	64.675360 
1217.035596  	64.715408 
1218.472474  	64.787286 
1219.909352  	64.785502 
1221.346230  	64.787225 
1222.783108  	64.803442 
1224.219985  	64.737021 
1225.656863  	64.691571 
1227.093741  	64.663111 
1228.530619  	64.612834 
1229.967497  	64.592613 
1231.404375  	64.542103 
1232.841253  	64.494706 
1234.278131  	64.484566 
1235.715009  	64.451297 
1237.151887  	64.436743 
1238.588765  	64.416153 
1240.025643  	64.379195 
1241.462520  	64.385144 
1242.899398  	64.391604 
1244.336276  	64.426044 
1245.773154  	64.491279 
1247.210032  	64.537245 
1248.646910  	64.607944 
1250.083788  	64.655496 
1251.520666  	64.683785 
1252.957544  	64.741332 
1254.394422  	64.742311 
1255.831300  	64.740637 
1257.268178  	64.770965 
1258.705055  	64.756817 
1260.141933  	64.750850 
1261.578811  	64.708168 
1263.015689  	64.604607 
1264.452567  	64.523033 
1265.889445  	64.386722 
1267.326323  	64.212294 
1268.763201  	64.057009 
1270.200079  	63.868167 
1271.636957  	63.705487 
1273.073835  	63.554519 
1274.510713  	63.416034 
1275.947590  	63.352164 
1277.384468  	63.224029 
1278.821346  	63.060467 
1280.258224  	62.961161 
1281.695102  	62.824962 
1283.131980  	62.707572 
1284.568858  	62.644449 
1286.005736  	62.627711 
1287.442614  	62.761786 
1288.879492  	62.982469 
1290.316370  	63.278463 
1291.753248  	63.651541 
1293.190125  	63.949996 
1294.627003  	64.216898 
1296.063881  	64.502189 
1297.500759  	64.811541 
1298.937637  	65.231724 
1300.374515  	65.643703 
1301.811393  	65.836567 
1303.248271  	66.329582 
1304.685149  	66.470457 
1306.122027  	66.698571 
1307.558905  	66.964564 
1308.995783  	67.248997 
1310.432660  	67.666789 
1311.869538  	67.864104 
1313.306416  	68.062164 
1314.743294  	68.258008 
1316.180172  	68.443237 
1317.617050  	68.611106 
1319.053928  	68.777749 
1320.490806  	68.955732 
1321.927684  	69.121884 
1323.364562  	69.280793 
1324.801440  	69.418797 
1326.238318  	69.570239 
1327.675195  	69.529799 
1329.112073  	69.464414 
1330.548951  	69.398997 
1331.985829  	69.338080 
1333.422707  	69.271747 
1334.859585  	69.203623 
1336.296463  	69.122956 
1337.733341  	69.066111 
1339.170219  	69.029303 
1340.607097  	69.025903 
1342.043975  	69.026362 
1343.480853  	69.002104 
1344.917730  	69.029581 
1346.354608  	69.058097 
1347.791486  	69.074834 
1349.228364  	69.131400 
1350.665242  	69.178464 
1352.102120  	69.205749 
1353.538998  	69.262533 
1354.975876  	69.312630 
1356.412754  	69.382831 
1357.849632  	69.449487 
1359.286510  	69.485020 
1360.723388  	69.537779 
1362.160265  	69.584725 
1363.597143  	69.657308 
1365.034021  	69.743674 
1366.470899  	69.788404 
1367.907777  	69.851379 
1369.344655  	69.940417 
1370.781533  	69.987504 
1372.218411  	70.018171 
1373.655289  	70.071056 
1375.092167  	70.160643 
1376.529045  	70.221487 
1377.965923  	70.255311 
1379.402800  	70.343784 
1380.839678  	70.432352 
1382.276556  	70.483637 
1383.713434  	70.573375 
1385.150312  	70.621883 
1386.587190  	70.691470 
1388.024068  	70.905727 
1389.460946  	71.095756 
1390.897824  	71.242172 
1392.334702  	71.361870 
1393.771580  	71.461761 
1395.208458  	71.649857 
1396.645335  	71.830186 
1398.082213  	71.949573 
1399.519091  	72.134188 
1400.955969  	72.259984 
1402.392847  	72.304775 
1403.829725  	72.442629 
1405.266603  	72.660538 
1406.703481  	72.861328 
1408.140359  	73.021634 
1409.577237  	73.084426 
1411.014115  	73.149750 
1412.450993  	73.197271 
1413.887871  	73.261529 
1415.324748  	73.259850 
1416.761626  	73.230555 
1418.198504  	73.203880 
1419.635382  	73.266644 
1421.072260  	73.220473 
1422.509138  	73.102055 
1423.946016  	73.037991 
1425.382894  	73.000239 
1426.819772  	72.895843 
1428.256650  	72.692427 
1429.693528  	72.516550 
1431.130406  	72.320468 
1432.567283  	72.085753 
1434.004161  	71.834982 
1435.441039  	71.615361 
1436.877917  	71.584749 
1438.314795  	71.572962 
1439.751673  	71.372757 
1441.188551  	71.225391 
1442.625429  	71.178682 
1444.062307  	71.174343 
1445.499185  	71.206007 
1446.936063  	71.244776 
1448.372941  	71.332474 
1449.809818  	71.416235 
1451.246696  	71.444417 
1452.683574  	71.519361 
1454.120452  	71.499508 
1455.557330  	71.400866 
1456.994208  	71.457931 
1458.431086  	71.562361 
1459.867964  	71.491199 
1461.304842  	71.436641 
1462.741720  	71.390444 
1464.178598  	71.416404 
1465.615476  	71.537312 
1467.052353  	71.564382 
1468.489231  	71.567426 
1469.926109  	71.508161 
1471.362987  	71.424648 
1472.799865  	71.457362 
1474.236743  	71.469341 
1475.673621  	71.380915 
1477.110499  	71.372257 
1478.547377  	71.336454 
1479.984255  	71.227461 
1481.421133  	71.116182 
1482.858011  	70.970983 
1484.294888  	70.792407 
1485.731766  	70.506349 
1487.168644  	70.221591 
1488.605522  	69.844960 
1490.042400  	69.429130 
1491.479278  	69.059704 
1492.916156  	68.679508 
1494.353034  	68.241848 
1495.789912  	67.835025 
1497.226790  	67.568753 
1498.663668  	67.254455 
1500.100546  	66.902465 
1501.537423  	66.644153 
1502.974301  	66.399957 
1504.411179  	66.203448 
1505.848057  	66.044254 
1507.284935  	66.346877 
1508.721813  	66.525120 
1510.158691  	66.466393 
1511.595569  	66.547494 
1513.032447  	66.703841 
1514.469325  	66.700977 
1515.906203  	66.690745 
1517.343081  	66.947891 
1518.779958  	67.139317 
1520.216836  	67.157997 
1521.653714  	67.633132 
1523.090592  	68.018746 
1524.527470  	68.006043 
1525.964348  	68.207377 
1527.401226  	68.549458 
1528.838104  	68.842242 
1530.274982  	69.149337 
1531.711860  	69.244752 
1533.148738  	69.405396 
1534.585616  	69.749590 
1536.022493  	69.836332 
1537.459371  	69.911702 
1538.896249  	70.033200 
1540.333127  	70.211212 
1541.770005  	70.390128 
1543.206883  	70.229408 
1544.643761  	70.224158 
1546.080639  	70.295977 
1547.517517  	70.122919 
1548.954395  	69.955335 
1550.391273  	69.859924 
1551.828151  	69.621225 
1553.265028  	69.518804 
1554.701906  	69.678498 
1556.138784  	69.815797 
1557.575662  	69.822700 
1559.012540  	70.039462 
1560.449418  	70.674254 
1561.886296  	70.455083 
1563.323174  	70.173769 
1564.760052  	70.050565 
1566.196930  	69.898420 
1567.633808  	69.658225 
1569.070686  	69.523693 
1570.507563  	69.455592 
1571.944441  	69.281552 
1573.381319  	69.039496 
1574.818197  	68.808781 
1576.255075  	68.816882 
1577.691953  	68.694556 
1579.128831  	68.446440 
1580.565709  	68.354581 
1582.002587  	68.255997 
1583.439465  	68.132103 
1584.876343  	68.064388 
1586.313221  	67.971857 
1587.750098  	67.927434 
1589.186976  	67.882799 
1590.623854  	67.815117 
1592.060732  	67.778916 
1593.497610  	67.612555 
1594.934488  	67.494177 
1596.371366  	67.553201 
1597.808244  	67.542142 
1599.245122  	67.558307 
1600.682000  	67.597407 
1602.118878  	67.595333 
1603.555756  	67.755343 
1604.992633  	67.874295 
1606.429511  	67.924827 
1607.866389  	68.152028 
1609.303267  	68.319544 
1610.740145  	68.453077 
1612.177023  	68.641144 
1613.613901  	68.682311 
1615.050779  	68.837000 
1616.487657  	69.180573 
1617.924535  	69.452026 
1619.361413  	69.603272 
1620.798291  	69.645511 
1622.235168  	69.796111 
1623.672046  	70.278525 
1625.108924  	70.548609 
1626.545802  	70.736754 
1627.982680  	71.064152 
1629.419558  	71.374571 
1630.856436  	71.757192 
1632.293314  	72.159369 
1633.730192  	72.548023 
1635.167070  	73.151282 
1636.603948  	73.855336 
1638.040826  	74.346277 
1639.477703  	74.804822 
1640.914581  	75.185904 
1642.351459  	75.697889 
1643.788337  	76.133571 
1645.225215  	76.450902 
1646.662093  	77.009424 
1648.098971  	77.719033 
1649.535849  	78.051757 
1650.972727  	78.267757 
1652.409605  	78.466862 
1653.846483  	79.190222 
1655.283361  	79.761521 
1656.720239  	80.049993 
1658.157116  	80.492999 
1659.593994  	80.825186 
1661.030872  	81.160291 
1662.467750  	81.586943 
1663.904628  	81.993451 
1665.341506  	82.371953 
1666.778384  	82.669416 
1668.215262  	82.921717 
1669.652140  	83.285607 
1671.089018  	83.610632 
1672.525896  	83.824580 
1673.962774  	84.112579 
1675.399651  	84.445907 
1676.836529  	84.810194 
1678.273407  	85.047396 
1679.710285  	85.183646 
1681.147163  	85.427474 
1682.584041  	85.602130 
1684.020919  	85.735453 
1685.457797  	86.077477 
1686.894675  	86.149517 
1688.331553  	86.239598 
1689.768431  	86.443369 
1691.205309  	86.628375 
1692.642186  	86.779848 
1694.079064  	86.857040 
1695.515942  	86.970475 
1696.952820  	87.253095 
1698.389698  	87.277881 
1699.826576  	87.337233 
1701.263454  	87.525746 
1702.700332  	87.467820 
1704.137210  	87.568828 
1705.574088  	87.764864 
1707.010966  	87.842420 
1708.447844  	87.954576 
1709.884721  	88.062041 
1711.321599  	88.184857 
1712.758477  	88.315799 
1714.195355  	88.392221 
1715.632233  	88.577832 
1717.069111  	88.683378 
1718.505989  	88.663776 
1719.942867  	88.953136 
1721.379745  	89.132691 
1722.816623  	89.264125 
1724.253501  	89.465456 
1725.690379  	89.619920 
1727.127256  	89.830156 
1728.564134  	90.032324 
1730.001012  	90.163397 
1731.437890  	90.364989 
1732.874768  	90.544173 
1734.311646  	90.713285 
1735.748524  	90.896495 
1737.185402  	91.013754 
1738.622280  	91.229516 
1740.059158  	91.481078 
1741.496036  	91.591850 
1742.932914  	91.770820 
1744.369791  	91.958123 
1745.806669  	92.127865 
1747.243547  	92.332897 
1748.680425  	92.502869 
1750.117303  	92.704275 
1751.554181  	92.874077 
1752.991059  	92.973739 
1754.427937  	93.213946 
1755.864815  	93.405417 
1757.301693  	93.529606 
1758.738571  	93.733347 
1760.175449  	93.888081 
1761.612326  	94.067738 
1763.049204  	94.262718 
1764.486082  	94.388396 
1765.922960  	94.573854 
1767.359838  	94.646031 
1768.796716  	94.649021 
1770.233594  	94.782541 
1771.670472  	94.912197 
1773.107350  	95.069162 
1774.544228  	95.177795 
1775.981106  	95.187803 
1777.417984  	95.309553 
1778.854861  	95.412029 
1780.291739  	95.441973 
1781.728617  	95.585358 
1783.165495  	95.677519 
1784.602373  	95.730520 
1786.039251  	95.801619 
1787.476129  	95.860628 
1788.913007  	96.044954 
1790.349885  	96.119972 
1791.786763  	96.022132 
1793.223641  	96.207191 
1794.660519  	96.224004 
1796.097396  	96.205115 
1797.534274  	96.323467 
1798.971152  	96.271815 
1800.408030  	96.366501 
1801.844908  	96.531093 
1803.281786  	96.482415 
1804.718664  	96.598237 
1806.155542  	96.662843 
1807.592420  	96.627194 
1809.029298  	96.663100 
1810.466176  	96.630414 
1811.903054  	96.659321 
1813.339931  	96.720374 
1814.776809  	96.719353 
1816.213687  	96.787927 
1817.650565  	96.793620 
1819.087443  	96.752413 
1820.524321  	96.798806 
1821.961199  	96.808386 
1823.398077  	96.856331 
1824.834955  	96.899156 
1826.271833  	96.826465 
1827.708711  	96.866503 
1829.145589  	96.865500 
1830.582466  	96.800623 
1832.019344  	96.874179 
1833.456222  	96.889911 
1834.893100  	96.931111 
1836.329978  	96.982643 
1837.766856  	96.897837 
1839.203734  	96.926082 
1840.640612  	96.953445 
1842.077490  	96.904184 
1843.514368  	96.955646 
1844.951246  	96.922353 
1846.388124  	96.893108 
1847.825001  	96.929376 
1849.261879  	96.884355 
1850.698757  	96.948605 
1852.135635  	96.969685 
1853.572513  	96.892163 
1855.009391  	96.981347 
1856.446269  	96.957471 
1857.883147  	96.931110 
1859.320025  	97.061784 
1860.756903  	96.996395 
1862.193781  	96.948403 
1863.630659  	96.950160 
1865.067536  	96.909366 
1866.504414  	96.965128 
1867.941292  	96.878239 
1869.378170  	96.784919 
1870.815048  	96.951810 
1872.251926  	96.947864 
1873.688804  	96.908602 
1875.125682  	96.980223 
1876.562560  	96.887313 
1877.999438  	96.933321 
1879.436316  	96.949658 
1880.873194  	96.856908 
1882.310072  	96.908532 
1883.746949  	96.920974 
1885.183827  	96.961238 
1886.620705  	96.979528 
1888.057583  	96.905206 
1889.494461  	96.999136 
1890.931339  	96.977930 
1892.368217  	96.928633 
1893.805095  	97.006600 
1895.241973  	96.873162 
1896.678851  	96.857269 
1898.115729  	97.013628 
1899.552607  	96.883641 
1900.989484  	96.863668 
1902.426362  	96.896756 
1903.863240  	96.812560 
1905.300118  	96.882691 
1906.736996  	96.730397 
1908.173874  	96.656052 
1909.610752  	96.897530 
1911.047630  	96.937373 
1912.484508  	96.977463 
1913.921386  	96.875678 
1915.358264  	96.701192 
1916.795142  	96.831356 
1918.232019  	96.853189 
1919.668897  	96.815228 
1921.105775  	96.890327 
1922.542653  	96.832251 
1923.979531  	96.858638 
1925.416409  	96.910912 
1926.853287  	96.793560 
1928.290165  	96.832836 
1929.727043  	96.829606 
1931.163921  	96.813324 
1932.600799  	96.888624 
1934.037677  	96.851133 
1935.474554  	96.840383 
1936.911432  	96.847695 
1938.348310  	96.839392 
1939.785188  	96.919568 
1941.222066  	96.839489 
1942.658944  	96.816379 
1944.095822  	96.911111 
1945.532700  	96.764998 
1946.969578  	96.909246 
1948.406456  	97.141903 
1949.843334  	96.754426 
1951.280212  	96.652233 
1952.717089  	96.701928 
1954.153967  	96.909644 
1955.590845  	97.242242 
1957.027723  	96.787042 
1958.464601  	96.665396 
1959.901479  	96.974863 
1961.338357  	96.960871 
1962.775235  	97.532108 
1964.212113  	97.550558 
1965.648991  	96.957445 
1967.085869  	96.998782 
1968.522747  	96.807492 
1969.959624  	96.930141 
1971.396502  	97.163604 
1972.833380  	96.921272 
1974.270258  	97.046280 
1975.707136  	97.048547 
1977.144014  	96.822847 
1978.580892  	96.918685 
1980.017770  	96.494727 
1981.454648  	96.426494 
1982.891526  	96.844669 
1984.328404  	96.761321 
1985.765282  	96.845123 
1987.202159  	96.866603 
1988.639037  	96.579024 
1990.075915  	96.719729 
1991.512793  	96.693603 
1992.949671  	96.644302 
1994.386549  	96.933423 
1995.823427  	96.919639 
1997.260305  	97.019007 
1998.697183  	97.075976 
2000.134061  	96.770916 
2001.570939  	97.037524 
2003.007817  	96.997136 
2004.444694  	96.923108 
2005.881572  	97.335447 
2007.318450  	96.988822 
2008.755328  	96.908429 
2010.192206  	97.108553 
2011.629084  	96.861153 
2013.065962  	97.014348 
2014.502840  	96.671763 
2015.939718  	96.429953 
2017.376596  	97.025293 
2018.813474  	96.852208 
2020.250352  	96.921314 
2021.687229  	97.326463 
2023.124107  	97.148205 
2024.560985  	97.544766 
2025.997863  	97.383793 
2027.434741  	96.876559 
2028.871619  	97.393671 
2030.308497  	97.261684 
2031.745375  	96.928567 
2033.182253  	97.149881 
2034.619131  	97.164294 
2036.056009  	97.525627 
2037.492887  	97.365412 
2038.929764  	96.967797 
2040.366642  	97.262370 
2041.803520  	97.065351 
2043.240398  	97.040847 
2044.677276  	97.396041 
2046.114154  	96.999863 
2047.551032  	96.767811 
2048.987910  	96.710338 
2050.424788  	96.605386 
2051.861666  	96.775341 
2053.298544  	96.629089 
2054.735422  	96.742958 
2056.172299  	97.075925 
2057.609177  	96.772423 
2059.046055  	96.763446 
2060.482933  	96.843587 
2061.919811  	96.500109 
2063.356689  	96.605677 
2064.793567  	96.676098 
2066.230445  	96.529446 
2067.667323  	96.707923 
2069.104201  	96.655262 
2070.541079  	96.479138 
2071.977957  	96.427205 
2073.414834  	96.366715 
2074.851712  	96.492690 
2076.288590  	96.515597 
2077.725468  	96.488636 
2079.162346  	96.559500 
2080.599224  	96.438003 
2082.036102  	96.454703 
2083.472980  	96.511610 
2084.909858  	96.397484 
2086.346736  	96.497703 
2087.783614  	96.535379 
2089.220492  	96.526262 
2090.657369  	96.713482 
2092.094247  	96.673676 
2093.531125  	96.615074 
2094.968003  	96.646324 
2096.404881  	96.496727 
2097.841759  	96.400545 
2099.278637  	96.299311 
2100.715515  	96.259877 
2102.152393  	96.275245 
2103.589271  	96.058730 
2105.026149  	96.084324 
2106.463027  	96.302539 
2107.899904  	96.319894 
2109.336782  	96.430055 
2110.773660  	96.382263 
2112.210538  	96.226373 
2113.647416  	96.295665 
2115.084294  	96.295079 
2116.521172  	96.457515 
2117.958050  	96.636252 
2119.394928  	96.456143 
2120.831806  	96.476059 
2122.268684  	96.504492 
2123.705562  	96.420107 
2125.142440  	96.638813 
2126.579317  	96.590932 
2128.016195  	96.432134 
2129.453073  	96.589094 
2130.889951  	96.563339 
2132.326829  	96.639291 
2133.763707  	96.761563 
2135.200585  	96.592082 
2136.637463  	96.699805 
2138.074341  	96.717583 
2139.511219  	96.529078 
2140.948097  	96.554713 
2142.384975  	96.546522 
2143.821852  	96.737350 
2145.258730  	96.767471 
2146.695608  	96.504102 
2148.132486  	96.734224 
2149.569364  	96.678305 
2151.006242  	96.298392 
2152.443120  	96.327941 
2153.879998  	96.263542 
2155.316876  	96.521697 
2156.753754  	96.766377 
2158.190632  	96.290030 
2159.627510  	96.446670 
2161.064387  	96.691199 
2162.501265  	96.445799 
2163.938143  	96.228842 
2165.375021  	95.980218 
2166.811899  	96.351489 
2168.248777  	96.662715 
2169.685655  	96.486686 
2171.122533  	96.975331 
2172.559411  	97.323347 
2173.996289  	97.142366 
2175.433167  	97.052174 
2176.870045  	96.549349 
2178.306922  	96.301875 
2179.743800  	96.507673 
2181.180678  	96.586550 
2182.617556  	96.967936 
2184.054434  	97.095832 
2185.491312  	96.903741 
2186.928190  	96.824201 
2188.365068  	96.417130 
2189.801946  	96.452567 
2191.238824  	96.833244 
2192.675702  	96.640964 
2194.112580  	96.641829 
2195.549457  	96.784155 
2196.986335  	96.693060 
2198.423213  	96.612655 
2199.860091  	96.402486 
2201.296969  	96.613809 
2202.733847  	96.845973 
2204.170725  	96.469275 
2205.607603  	96.575684 
2207.044481  	96.901201 
2208.481359  	96.877372 
2209.918237  	96.976139 
2211.355115  	96.781513 
2212.791992  	96.662781 
2214.228870  	96.833265 
2215.665748  	96.643045 
2217.102626  	96.646797 
2218.539504  	96.709018 
2219.976382  	96.549954 
2221.413260  	96.698304 
2222.850138  	96.522500 
2224.287016  	96.265679 
2225.723894  	96.541756 
2227.160772  	96.517275 
2228.597650  	96.367909 
2230.034527  	96.463593 
2231.471405  	96.509739 
2232.908283  	96.621884 
2234.345161  	96.482921 
2235.782039  	96.282779 
2237.218917  	96.345532 
2238.655795  	96.232038 
2240.092673  	96.278422 
2241.529551  	96.461553 
2242.966429  	96.392197 
2244.403307  	96.551495 
2245.840185  	96.637887 
2247.277062  	96.448411 
2248.713940  	96.442616 
2250.150818  	96.444098 
2251.587696  	96.516040 
2253.024574  	96.553548 
2254.461452  	96.328228 
2255.898330  	96.306555 
2257.335208  	96.405114 
2258.772086  	96.322010 
2260.208964  	96.300272 
2261.645842  	96.284151 
2263.082720  	96.265073 
2264.519597  	96.330021 
2265.956475  	96.312323 
2267.393353  	96.329265 
2268.830231  	96.317334 
2270.267109  	96.158695 
2271.703987  	96.127042 
2273.140865  	96.168575 
2274.577743  	96.186805 
2276.014621  	96.238414 
2277.451499  	96.181823 
2278.888377  	96.112652 
2280.325255  	96.077617 
2281.762132  	96.040046 
2283.199010  	96.077589 
2284.635888  	96.051803 
2286.072766  	95.951708 
2287.509644  	95.934838 
2288.946522  	95.912779 
2290.383400  	95.898039 
2291.820278  	95.890981 
2293.257156  	95.840166 
2294.694034  	95.818597 
2296.130912  	95.756681 
2297.567790  	95.782710 
2299.004667  	95.710143 
2300.441545  	95.717483 
2301.878423  	95.703959 
2303.315301  	95.722688 
2304.752179  	95.671611 
2306.189057  	95.647092 
2307.625935  	95.616339 
2309.062813  	95.563184 
2310.499691  	95.546192 
2311.936569  	95.491587 
2313.373447  	95.461051 
2314.810325  	95.471208 
2316.247202  	95.481990 
2317.684080  	95.517563 
2319.120958  	95.452813 
2320.557836  	95.409831 
2321.994714  	95.445766 
2323.431592  	95.284733 
2324.868470  	95.170819 
2326.305348  	95.260326 
2327.742226  	95.270018 
2329.179104  	95.230472 
2330.615982  	95.207595 
2332.052860  	95.234319 
2333.489737  	95.374980 
2334.926615  	95.398179 
2336.363493  	95.359758 
2337.800371  	95.387865 
2339.237249  	95.317794 
2340.674127  	95.285586 
2342.111005  	95.296897 
2343.547883  	95.225983 
2344.984761  	95.256994 
2346.421639  	95.301862 
2347.858517  	95.262493 
2349.295395  	95.259354 
2350.732273  	95.277740 
2352.169150  	95.307636 
2353.606028  	95.305359 
2355.042906  	95.280585 
2356.479784  	95.356018 
2357.916662  	95.369123 
2359.353540  	95.345662 
2360.790418  	95.390236 
2362.227296  	95.284083 
2363.664174  	95.176743 
2365.101052  	95.152861 
2366.537930  	95.106654 
2367.974808  	95.155910 
2369.411685  	95.127021 
2370.848563  	94.982479 
2372.285441  	94.909297 
2373.722319  	94.857783 
2375.159197  	94.869065 
2376.596075  	94.876269 
2378.032953  	94.825789 
2379.469831  	94.896653 
2380.906709  	94.954816 
2382.343587  	94.923590 
2383.780465  	94.983733 
2385.217343  	95.055102 
2386.654220  	95.087692 
2388.091098  	95.118217 
2389.527976  	95.084968 
2390.964854  	95.062728 
2392.401732  	95.066487 
2393.838610  	95.039816 
2395.275488  	95.019877 
2396.712366  	94.973507 
2398.149244  	94.945053 
2399.586122  	94.941314 
2401.023000  	94.883006 
2402.459878  	94.859706 
2403.896755  	94.836888 
2405.333633  	94.777853 
2406.770511  	94.773628 
2408.207389  	94.699577 
2409.644267  	94.599935 
2411.081145  	94.608969 
2412.518023  	94.576907 
2413.954901  	94.531353 
2415.391779  	94.535283 
2416.828657  	94.493077 
2418.265535  	94.481731 
2419.702413  	94.537998 
2421.139290  	94.568916 
2422.576168  	94.507278 
2424.013046  	94.413089 
2425.449924  	94.419901 
2426.886802  	94.385188 
2428.323680  	94.307626 
2429.760558  	94.424914 
2431.197436  	94.493514 
2432.634314  	94.332504 
2434.071192  	94.209144 
2435.508070  	94.214413 
2436.944948  	94.274943 
2438.381825  	94.225482 
2439.818703  	94.055963 
2441.255581  	94.034767 
2442.692459  	94.067371 
2444.129337  	94.008107 
2445.566215  	94.019786 
2447.003093  	94.046030 
2448.439971  	93.995104 
2449.876849  	93.899379 
2451.313727  	93.814105 
2452.750605  	93.852220 
2454.187483  	93.864144 
2455.624360  	93.766484 
2457.061238  	93.770336 
2458.498116  	93.810177 
2459.934994  	93.768177 
2461.371872  	93.725780 
2462.808750  	93.713909 
2464.245628  	93.756112 
2465.682506  	93.785331 
2467.119384  	93.742341 
2468.556262  	93.669824 
2469.993140  	93.559401 
2471.430018  	93.526808 
2472.866895  	93.594780 
2474.303773  	93.605263 
2475.740651  	93.615660 
2477.177529  	93.630420 
2478.614407  	93.607170 
2480.051285  	93.645783 
2481.488163  	93.652177 
2482.925041  	93.600859 
2484.361919  	93.576701 
2485.798797  	93.489809 
2487.235675  	93.410631 
2488.672553  	93.417428 
2490.109430  	93.409455 
2491.546308  	93.387034 
2492.983186  	93.349114 
2494.420064  	93.327108 
2495.856942  	93.344776 
2497.293820  	93.296295 
2498.730698  	93.255004 
2500.167576  	93.291088 
2501.604454  	93.286579 
2503.041332  	93.233199 
2504.478210  	93.198561 
2505.915088  	93.252018 
2507.351965  	93.318696 
2508.788843  	93.222417 
2510.225721  	93.098163 
2511.662599  	93.085174 
2513.099477  	93.080831 
2514.536355  	93.058906 
2515.973233  	93.019963 
2517.410111  	92.975525 
2518.846989  	92.942641 
2520.283867  	92.891973 
2521.720745  	92.884311 
2523.157623  	92.881531 
2524.594500  	92.835650 
2526.031378  	92.859159 
2527.468256  	92.882078 
2528.905134  	92.838434 
2530.342012  	92.804973 
2531.778890  	92.735199 
2533.215768  	92.650262 
2534.652646  	92.610266 
2536.089524  	92.606245 
2537.526402  	92.630124 
2538.963280  	92.598280 
2540.400158  	92.573387 
2541.837035  	92.604200 
2543.273913  	92.547611 
2544.710791  	92.487479 
2546.147669  	92.464566 
2547.584547  	92.396800 
2549.021425  	92.408526 
2550.458303  	92.436341 
2551.895181  	92.394676 
2553.332059  	92.364586 
2554.768937  	92.270275 
2556.205815  	92.195393 
2557.642693  	92.189256 
2559.079570  	92.132422 
2560.516448  	92.182233 
2561.953326  	92.255590 
2563.390204  	92.155595 
2564.827082  	92.119838 
2566.263960  	92.140366 
2567.700838  	92.093105 
2569.137716  	92.126930 
2570.574594  	92.179188 
2572.011472  	92.145603 
2573.448350  	92.079343 
2574.885228  	92.032746 
2576.322105  	92.001994 
2577.758983  	91.888668 
2579.195861  	91.822965 
2580.632739  	91.918376 
2582.069617  	91.942462 
2583.506495  	91.904993 
2584.943373  	91.909061 
2586.380251  	91.867438 
2587.817129  	91.862285 
2589.254007  	91.885160 
2590.690885  	91.858878 
2592.127763  	91.845526 
2593.564641  	91.794493 
2595.001518  	91.755349 
2596.438396  	91.769869 
2597.875274  	91.708449 
2599.312152  	91.665729 
2600.749030  	91.687417 
2602.185908  	91.674895 
2603.622786  	91.687607 
2605.059664  	91.690451 
2606.496542  	91.680103 
2607.933420  	91.736101 
2609.370298  	91.731506 
2610.807176  	91.658380 
2612.244053  	91.634273 
2613.680931  	91.630626 
2615.117809  	91.643183 
2616.554687  	91.666306 
2617.991565  	91.651062 
2619.428443  	91.603052 
2620.865321  	91.568206 
2622.302199  	91.589478 
2623.739077  	91.601254 
2625.175955  	91.575822 
2626.612833  	91.584738 
2628.049711  	91.555493 
2629.486588  	91.458745 
2630.923466  	91.410024 
2632.360344  	91.417459 
2633.797222  	91.425903 
2635.234100  	91.394164 
2636.670978  	91.349614 
2638.107856  	91.352922 
2639.544734  	91.333406 
2640.981612  	91.281277 
2642.418490  	91.249604 
2643.855368  	91.177808 
2645.292246  	91.116987 
2646.729123  	91.145796 
2648.166001  	91.176336 
2649.602879  	91.158900 
2651.039757  	91.112475 
2652.476635  	91.074963 
2653.913513  	91.065390 
2655.350391  	91.032361 
2656.787269  	90.988698 
2658.224147  	90.966925 
2659.661025  	90.946082 
2661.097903  	90.926112 
2662.534781  	90.883985 
2663.971658  	90.845361 
2665.408536  	90.845782 
2666.845414  	90.814232 
2668.282292  	90.775178 
2669.719170  	90.775272 
2671.156048  	90.749850 
2672.592926  	90.722561 
2674.029804  	90.710713 
2675.466682  	90.683384 
2676.903560  	90.678322 
2678.340438  	90.664986 
2679.777316  	90.619710 
2681.214193  	90.586482 
2682.651071  	90.553272 
2684.087949  	90.535168 
2685.524827  	90.532180 
2686.961705  	90.498583 
2688.398583  	90.450775 
2689.835461  	90.397240 
2691.272339  	90.357370 
2692.709217  	90.340613 
2694.146095  	90.296121 
2695.582973  	90.260598 
2697.019851  	90.257414 
2698.456728  	90.244221 
2699.893606  	90.245327 
2701.330484  	90.225909 
2702.767362  	90.164916 
2704.204240  	90.145600 
2705.641118  	90.151658 
2707.077996  	90.137850 
2708.514874  	90.117191 
2709.951752  	90.094319 
2711.388630  	90.079723 
2712.825508  	90.037927 
2714.262386  	89.979142 
2715.699263  	89.972676 
2717.136141  	89.967470 
2718.573019  	89.934697 
2720.009897  	89.923308 
2721.446775  	89.908933 
2722.883653  	89.876181 
2724.320531  	89.840895 
2725.757409  	89.811255 
2727.194287  	89.797627 
2728.631165  	89.784169 
2730.068043  	89.775490 
2731.504921  	89.765868 
2732.941798  	89.741647 
2734.378676  	89.728807 
2735.815554  	89.698290 
2737.252432  	89.655215 
2738.689310  	89.643890 
2740.126188  	89.616803 
2741.563066  	89.586960 
2742.999944  	89.565894 
2744.436822  	89.517391 
2745.873700  	89.526721 
2747.310578  	89.547032 
2748.747456  	89.466455 
2750.184333  	89.409804 
2751.621211  	89.397069 
2753.058089  	89.341239 
2754.494967  	89.306608 
2755.931845  	89.290259 
2757.368723  	89.253308 
2758.805601  	89.238526 
2760.242479  	89.240807 
2761.679357  	89.231806 
2763.116235  	89.201307 
2764.553113  	89.186769 
2765.989991  	89.217837 
2767.426868  	89.219997 
2768.863746  	89.177697 
2770.300624  	89.147530 
2771.737502  	89.131582 
2773.174380  	89.120512 
2774.611258  	89.096831 
2776.048136  	89.077440 
2777.485014  	89.074241 
2778.921892  	89.033249 
2780.358770  	88.995599 
2781.795648  	88.995144 
2783.232526  	88.967860 
2784.669403  	88.935792 
2786.106281  	88.900289 
2787.543159  	88.838453 
2788.980037  	88.814462 
2790.416915  	88.807141 
2791.853793  	88.779294 
2793.290671  	88.765692 
2794.727549  	88.746478 
2796.164427  	88.705423 
2797.601305  	88.649489 
2799.038183  	88.609053 
2800.475061  	88.607944 
2801.911938  	88.567592 
2803.348816  	88.500586 
2804.785694  	88.488048 
2806.222572  	88.470829 
2807.659450  	88.432434 
2809.096328  	88.397743 
2810.533206  	88.348981 
2811.970084  	88.338204 
2813.406962  	88.341525 
2814.843840  	88.296809 
2816.280718  	88.266612 
2817.717596  	88.258333 
2819.154474  	88.229290 
2820.591351  	88.183561 
2822.028229  	88.124418 
2823.465107  	88.090718 
2824.901985  	88.090028 
2826.338863  	88.082421 
2827.775741  	88.073958 
2829.212619  	88.055257 
2830.649497  	88.011967 
2832.086375  	87.965316 
2833.523253  	87.920028 
2834.960131  	87.873053 
2836.397009  	87.824072 
2837.833886  	87.793350 
2839.270764  	87.795580 
2840.707642  	87.788005 
2842.144520  	87.757256 
2843.581398  	87.731535 
2845.018276  	87.713836 
2846.455154  	87.700424 
2847.892032  	87.685857 
2849.328910  	87.674708 
2850.765788  	87.666272 
2852.202666  	87.644401 
2853.639544  	87.601020 
2855.076421  	87.518494 
2856.513299  	87.440139 
2857.950177  	87.403278 
2859.387055  	87.343628 
2860.823933  	87.289378 
2862.260811  	87.275635 
2863.697689  	87.229306 
2865.134567  	87.184819 
2866.571445  	87.147123 
2868.008323  	87.066454 
2869.445201  	87.030741 
2870.882079  	87.020425 
2872.318956  	86.954010 
2873.755834  	86.890518 
2875.192712  	86.839021 
2876.629590  	86.787968 
2878.066468  	86.738180 
2879.503346  	86.665886 
2880.940224  	86.603047 
2882.377102  	86.523653 
2883.813980  	86.436067 
2885.250858  	86.399376 
2886.687736  	86.325748 
2888.124614  	86.240534 
2889.561491  	86.215676 
2890.998369  	86.149761 
2892.435247  	86.089849 
2893.872125  	86.082292 
2895.309003  	86.061602 
2896.745881  	86.095861 
2898.182759  	86.111289 
2899.619637  	86.019062 
2901.056515  	85.959120 
2902.493393  	85.929322 
2903.930271  	85.896129 
2905.367149  	85.901350 
2906.804026  	85.860687 
2908.240904  	85.783088 
2909.677782  	85.737471 
2911.114660  	85.703147 
2912.551538  	85.676998 
2913.988416  	85.621124 
2915.425294  	85.549727 
2916.862172  	85.523276 
2918.299050  	85.499281 
2919.735928  	85.464637 
2921.172806  	85.422500 
2922.609684  	85.375655 
2924.046561  	85.347187 
2925.483439  	85.272250 
2926.920317  	85.192392 
2928.357195  	85.188158 
2929.794073  	85.157246 
2931.230951  	85.078934 
2932.667829  	85.003825 
2934.104707  	84.936469 
2935.541585  	84.909316 
2936.978463  	84.864507 
2938.415341  	84.768783 
2939.852219  	84.666563 
2941.289096  	84.562163 
2942.725974  	84.522954 
2944.162852  	84.536882 
2945.599730  	84.533993 
2947.036608  	84.565539 
2948.473486  	84.574063 
2949.910364  	84.525554 
2951.347242  	84.497956 
2952.784120  	84.455658 
2954.220998  	84.441637 
2955.657876  	84.461935 
2957.094754  	84.412202 
2958.531631  	84.391093 
2959.968509  	84.402884 
2961.405387  	84.357383 
2962.842265  	84.348820 
2964.279143  	84.344219 
2965.716021  	84.287077 
2967.152899  	84.253498 
2968.589777  	84.237471 
2970.026655  	84.226224 
2971.463533  	84.189649 
2972.900411  	84.159012 
2974.337289  	84.210258 
2975.774166  	84.195905 
2977.211044  	84.130602 
2978.647922  	84.184299 
2980.084800  	84.216905 
2981.521678  	84.187180 
2982.958556  	84.197224 
2984.395434  	84.173800 
2985.832312  	84.146805 
2987.269190  	84.165399 
2988.706068  	84.172577 
2990.142946  	84.180029 
2991.579824  	84.179201 
2993.016701  	84.167177 
2994.453579  	84.150131 
2995.890457  	84.113490 
2997.327335  	84.105615 
2998.764213  	84.096286 
3000.201091  	84.071940 
3001.637969  	84.088131 
3003.074847  	84.056180 
3004.511725  	83.996224 
3005.948603  	84.018910 
3007.385481  	84.025851 
3008.822359  	83.981570 
3010.259236  	83.962915 
3011.696114  	83.968563 
3013.132992  	83.961587 
3014.569870  	83.900426 
3016.006748  	83.853547 
3017.443626  	83.881280 
3018.880504  	83.876968 
3020.317382  	83.808597 
3021.754260  	83.733141 
3023.191138  	83.687239 
3024.628016  	83.680472 
3026.064894  	83.634763 
3027.501771  	83.549479 
3028.938649  	83.486779 
3030.375527  	83.425091 
3031.812405  	83.397202 
3033.249283  	83.415523 
3034.686161  	83.422843 
3036.123039  	83.396962 
3037.559917  	83.306484 
3038.996795  	83.228362 
3040.433673  	83.222939 
3041.870551  	83.200562 
3043.307429  	83.192033 
3044.744306  	83.187442 
3046.181184  	83.084515 
3047.618062  	83.002954 
3049.054940  	82.997117 
3050.491818  	82.975439 
3051.928696  	82.979216 
3053.365574  	82.981013 
3054.802452  	82.891458 
3056.239330  	82.793957 
3057.676208  	82.777051 
3059.113086  	82.771962 
3060.549964  	82.734324 
3061.986842  	82.737886 
3063.423719  	82.755054 
3064.860597  	82.718547 
3066.297475  	82.690915 
3067.734353  	82.656925 
3069.171231  	82.620447 
3070.608109  	82.638593 
3072.044987  	82.595129 
3073.481865  	82.524337 
3074.918743  	82.546219 
3076.355621  	82.537370 
3077.792499  	82.500394 
3079.229377  	82.494779 
3080.666254  	82.445478 
3082.103132  	82.409970 
3083.540010  	82.409490 
3084.976888  	82.404470 
3086.413766  	82.412560 
3087.850644  	82.376031 
3089.287522  	82.328908 
3090.724400  	82.308328 
3092.161278  	82.257494 
3093.598156  	82.239024 
3095.035034  	82.225780 
3096.471912  	82.164424 
3097.908789  	82.137627 
3099.345667  	82.101037 
3100.782545  	82.043998 
3102.219423  	82.009045 
3103.656301  	81.956732 
3105.093179  	81.953912 
3106.530057  	81.970429 
3107.966935  	81.935579 
3109.403813  	81.925477 
3110.840691  	81.884350 
3112.277569  	81.842964 
3113.714447  	81.906585 
3115.151324  	81.921780 
3116.588202  	81.862811 
3118.025080  	81.842596 
3119.461958  	81.832924 
3120.898836  	81.800877 
3122.335714  	81.721971 
3123.772592  	81.654673 
3125.209470  	81.634535 
3126.646348  	81.600166 
3128.083226  	81.628358 
3129.520104  	81.667711 
3130.956982  	81.621361 
3132.393859  	81.628624 
3133.830737  	81.642212 
3135.267615  	81.574640 
3136.704493  	81.497774 
3138.141371  	81.405869 
3139.578249  	81.398420 
3141.015127  	81.418127 
3142.452005  	81.301142 
3143.888883  	81.252341 
3145.325761  	81.261290 
3146.762639  	81.160665 
3148.199517  	81.121498 
3149.636394  	81.123701 
3151.073272  	81.082278 
3152.510150  	81.102223 
3153.947028  	81.121994 
3155.383906  	81.086715 
3156.820784  	81.008009 
3158.257662  	80.916529 
3159.694540  	80.887243 
3161.131418  	80.841398 
3162.568296  	80.780565 
3164.005174  	80.764609 
3165.442052  	80.716586 
3166.878929  	80.691909 
3168.315807  	80.669127 
3169.752685  	80.576735 
3171.189563  	80.533495 
3172.626441  	80.486043 
3174.063319  	80.415106 
3175.500197  	80.426701 
3176.937075  	80.438667 
3178.373953  	80.470856 
3179.810831  	80.487544 
3181.247709  	80.384367 
3182.684587  	80.351220 
3184.121464  	80.382823 
3185.558342  	80.329383 
3186.995220  	80.294936 
3188.432098  	80.324040 
3189.868976  	80.411458 
3191.305854  	80.487749 
3192.742732  	80.475201 
3194.179610  	80.523969 
3195.616488  	80.630366 
3197.053366  	80.713581 
3198.490244  	80.811423 
3199.927122  	80.829167 
3201.363999  	80.827690 
3202.800877  	80.925261 
3204.237755  	81.040533 
3205.674633  	81.162450 
3207.111511  	81.245420 
3208.548389  	81.290801 
3209.985267  	81.362092 
3211.422145  	81.366524 
3212.859023  	81.407617 
3214.295901  	81.548019 
3215.732779  	81.597307 
3217.169657  	81.603124 
3218.606534  	81.626322 
3220.043412  	81.671349 
3221.480290  	81.787705 
3222.917168  	81.811350 
3224.354046  	81.758275 
3225.790924  	81.747195 
3227.227802  	81.715506 
3228.664680  	81.756288 
3230.101558  	81.835122 
3231.538436  	81.853273 
3232.975314  	81.930500 
3234.412192  	81.976298 
3235.849069  	81.974855 
3237.285947  	82.041076 
3238.722825  	82.052444 
3240.159703  	82.027422 
3241.596581  	82.031553 
3243.033459  	82.077818 
3244.470337  	82.229861 
3245.907215  	82.315745 
3247.344093  	82.341300 
3248.780971  	82.449589 
3250.217849  	82.491678 
3251.654727  	82.505253 
3253.091604  	82.540561 
3254.528482  	82.532374 
3255.965360  	82.612816 
3257.402238  	82.709088 
3258.839116  	82.748394 
3260.275994  	82.778564 
3261.712872  	82.732156 
3263.149750  	82.843486 
3264.586628  	83.076619 
3266.023506  	83.023794 
3267.460384  	82.912091 
3268.897262  	82.959004 
3270.334139  	82.990015 
3271.771017  	83.048272 
3273.207895  	83.106589 
3274.644773  	83.128118 
3276.081651  	83.177439 
3277.518529  	83.183985 
3278.955407  	83.198234 
3280.392285  	83.227397 
3281.829163  	83.206487 
3283.266041  	83.242615 
3284.702919  	83.333853 
3286.139797  	83.416218 
3287.576674  	83.427727 
3289.013552  	83.346079 
3290.450430  	83.364415 
3291.887308  	83.457314 
3293.324186  	83.476775 
3294.761064  	83.509804 
3296.197942  	83.524775 
3297.634820  	83.516655 
3299.071698  	83.531490 
3300.508576  	83.488780 
3301.945454  	83.509771 
3303.382332  	83.637770 
3304.819210  	83.729945 
3306.256087  	83.780762 
3307.692965  	83.729317 
3309.129843  	83.653319 
3310.566721  	83.716447 
3312.003599  	83.777003 
3313.440477  	83.787354 
3314.877355  	83.786981 
3316.314233  	83.758457 
3317.751111  	83.807874 
3319.187989  	83.874546 
3320.624867  	83.869418 
3322.061745  	83.859914 
3323.498622  	83.847715 
3324.935500  	83.916369 
3326.372378  	84.018052 
3327.809256  	83.981183 
3329.246134  	83.936118 
3330.683012  	83.938374 
3332.119890  	83.932628 
3333.556768  	83.968314 
3334.993646  	83.972495 
3336.430524  	83.979178 
3337.867402  	84.016720 
3339.304280  	83.961876 
3340.741157  	83.963261 
3342.178035  	84.048082 
3343.614913  	84.012923 
3345.051791  	83.984665 
3346.488669  	84.081992 
3347.925547  	84.154745 
3349.362425  	84.126138 
3350.799303  	84.107049 
3352.236181  	84.189258 
3353.673059  	84.217855 
3355.109937  	84.154682 
3356.546815  	84.180097 
3357.983692  	84.228464 
3359.420570  	84.253299 
3360.857448  	84.329302 
3362.294326  	84.336058 
3363.731204  	84.328185 
3365.168082  	84.497695 
3366.604960  	84.701819 
3368.041838  	84.708044 
3369.478716  	84.585107 
3370.915594  	84.558920 
3372.352472  	84.657583 
3373.789350  	84.778034 
3375.226227  	84.877814 
3376.663105  	84.881292 
3378.099983  	84.838263 
3379.536861  	84.874425 
3380.973739  	84.929233 
3382.410617  	84.968531 
3383.847495  	84.979988 
3385.284373  	84.967674 
3386.721251  	85.059538 
3388.158129  	85.153664 
3389.595007  	85.122246 
3391.031885  	85.106610 
3392.468762  	85.149828 
3393.905640  	85.237210 
3395.342518  	85.350763 
3396.779396  	85.395900 
3398.216274  	85.395528 
3399.653152  	85.396408 
3401.090030  	85.464371 
3402.526908  	85.635848 
3403.963786  	85.724777 
3405.400664  	85.687544 
3406.837542  	85.683385 
3408.274420  	85.783896 
3409.711297  	85.896956 
3411.148175  	85.854121 
3412.585053  	85.861303 
3414.021931  	86.078751 
3415.458809  	86.143880 
3416.895687  	86.096910 
3418.332565  	86.173408 
3419.769443  	86.183042 
3421.206321  	86.223538 
3422.643199  	86.379982 
3424.080077  	86.408993 
3425.516955  	86.399615 
3426.953832  	86.443405 
3428.390710  	86.484983 
3429.827588  	86.548275 
3431.264466  	86.588439 
3432.701344  	86.642261 
3434.138222  	86.699083 
3435.575100  	86.705083 
3437.011978  	86.760726 
3438.448856  	86.827032 
3439.885734  	86.916311 
3441.322612  	87.028018 
3442.759490  	86.984439 
3444.196367  	87.015746 
3445.633245  	87.213493 
3447.070123  	87.264659 
3448.507001  	87.308645 
3449.943879  	87.425531 
3451.380757  	87.439348 
3452.817635  	87.475579 
3454.254513  	87.503155 
3455.691391  	87.479248 
3457.128269  	87.594149 
3458.565147  	87.753099 
3460.002025  	87.804301 
3461.438902  	87.810902 
3462.875780  	87.858232 
3464.312658  	87.960042 
3465.749536  	88.035219 
3467.186414  	88.077300 
3468.623292  	88.108703 
3470.060170  	88.153324 
3471.497048  	88.256001 
3472.933926  	88.297735 
3474.370804  	88.311787 
3475.807682  	88.404526 
3477.244560  	88.423236 
3478.681437  	88.473529 
3480.118315  	88.615519 
3481.555193  	88.599930 
3482.992071  	88.578661 
3484.428949  	88.661250 
3485.865827  	88.696550 
3487.302705  	88.814494 
3488.739583  	88.941924 
3490.176461  	88.911317 
3491.613339  	88.886705 
3493.050217  	88.933481 
3494.487095  	89.008975 
3495.923972  	89.047652 
3497.360850  	89.045166 
3498.797728  	89.138341 
3500.234606  	89.239894 
3501.671484  	89.273607 
3503.108362  	89.338622 
3504.545240  	89.384524 
3505.982118  	89.404223 
3507.418996  	89.441566 
3508.855874  	89.503796 
3510.292752  	89.626600 
3511.729630  	89.684871 
3513.166507  	89.709349 
3514.603385  	89.847750 
3516.040263  	89.992982 
3517.477141  	90.078357 
3518.914019  	90.090196 
3520.350897  	90.062004 
3521.787775  	90.134075 
3523.224653  	90.191819 
3524.661531  	90.187591 
3526.098409  	90.286701 
3527.535287  	90.393463 
3528.972165  	90.430360 
3530.409043  	90.434833 
3531.845920  	90.467695 
3533.282798  	90.576208 
3534.719676  	90.595467 
3536.156554  	90.600447 
3537.593432  	90.777218 
3539.030310  	90.904681 
3540.467188  	91.014159 
3541.904066  	91.145927 
3543.340944  	91.085276 
3544.777822  	91.072091 
3546.214700  	91.251581 
3547.651578  	91.315749 
3549.088455  	91.334453 
3550.525333  	91.445523 
3551.962211  	91.522294 
3553.399089  	91.483209 
3554.835967  	91.467758 
3556.272845  	91.587543 
3557.709723  	91.707762 
3559.146601  	91.799671 
3560.583479  	91.911365 
3562.020357  	91.943766 
3563.457235  	91.944616 
3564.894113  	92.023441 
3566.330990  	92.082791 
3567.767868  	92.207925 
3569.204746  	92.347621 
3570.641624  	92.377740 
3572.078502  	92.443614 
3573.515380  	92.487406 
3574.952258  	92.402932 
3576.389136  	92.455865 
3577.826014  	92.553596 
3579.262892  	92.586852 
3580.699770  	92.741446 
3582.136648  	92.934852 
3583.573525  	92.918823 
3585.010403  	92.731772 
3586.447281  	92.673221 
3587.884159  	92.903870 
3589.321037  	93.117719 
3590.757915  	93.122921 
3592.194793  	93.092180 
3593.631671  	93.137769 
3595.068549  	93.265857 
3596.505427  	93.296020 
3597.942305  	93.299027 
3599.379183  	93.414937 
3600.816060  	93.507699 
3602.252938  	93.584723 
3603.689816  	93.677011 
3605.126694  	93.688852 
3606.563572  	93.704475 
3608.000450  	93.852749 
3609.437328  	94.159194 
3610.874206  	94.335261 
3612.311084  	94.216686 
3613.747962  	94.081898 
3615.184840  	94.125662 
3616.621718  	94.157802 
3618.058595  	94.185129 
3619.495473  	94.235643 
3620.932351  	94.400366 
3622.369229  	94.666750 
3623.806107  	94.728341 
3625.242985  	94.606766 
3626.679863  	94.620747 
3628.116741  	94.852059 
3629.553619  	95.161723 
3630.990497  	95.231677 
3632.427375  	95.192729 
3633.864253  	95.221763 
3635.301130  	95.235388 
3636.738008  	95.340477 
3638.174886  	95.556079 
3639.611764  	95.693903 
3641.048642  	95.748967 
3642.485520  	95.777308 
3643.922398  	95.783699 
3645.359276  	95.826171 
3646.796154  	95.777678 
3648.233032  	95.712171 
3649.669910  	96.084268 
3651.106788  	96.505723 
3652.543665  	96.426770 
3653.980543  	96.283844 
3655.417421  	96.343552 
3656.854299  	96.490925 
3658.291177  	96.528865 
3659.728055  	96.544211 
3661.164933  	96.607497 
3662.601811  	96.687402 
3664.038689  	96.785444 
3665.475567  	96.792473 
3666.912445  	96.713622 
3668.349323  	96.733029 
3669.786200  	96.930511 
3671.223078  	97.223308 
3672.659956  	97.234614 
3674.096834  	97.169709 
3675.533712  	97.130173 
3676.970590  	96.949590 
3678.407468  	96.910462 
3679.844346  	96.971949 
3681.281224  	96.985014 
3682.718102  	97.052337 
3684.154980  	97.113019 
3685.591858  	97.021942 
3687.028735  	97.019319 
3688.465613  	96.986339 
3689.902491  	96.896521 
3691.339369  	97.193005 
3692.776247  	97.198776 
3694.213125  	96.860476 
3695.650003  	96.880303 
3697.086881  	97.142814 
3698.523759  	97.234760 
3699.960637  	97.218128 
3701.397515  	97.166009 
3702.834393  	97.187692 
3704.271270  	97.264404 
3705.708148  	97.232894 
3707.145026  	97.233207 
3708.581904  	97.237989 
3710.018782  	97.139175 
3711.455660  	97.078215 
3712.892538  	97.128150 
3714.329416  	97.097732 
3715.766294  	97.095657 
3717.203172  	97.162205 
3718.640050  	97.211737 
3720.076928  	97.195387 
3721.513805  	97.145396 
3722.950683  	97.104233 
3724.387561  	97.195265 
3725.824439  	97.311014 
3727.261317  	97.232835 
3728.698195  	97.106879 
3730.135073  	97.145257 
3731.571951  	97.299726 
3733.008829  	97.423809 
3734.445707  	97.400794 
3735.882585  	97.264480 
3737.319463  	97.152441 
3738.756340  	97.203237 
3740.193218  	97.263513 
3741.630096  	97.247006 
3743.066974  	97.336679 
3744.503852  	97.615701 
3745.940730  	97.438186 
3747.377608  	97.166627 
3748.814486  	97.128969 
3750.251364  	97.059085 
3751.688242  	97.051049 
3753.125120  	97.105810 
3754.561998  	97.095875 
3755.998875  	97.154188 
3757.435753  	97.186500 
3758.872631  	97.158629 
3760.309509  	97.241324 
3761.746387  	97.203796 
3763.183265  	97.055730 
3764.620143  	97.069635 
3766.057021  	97.137339 
3767.493899  	97.166571 
3768.930777  	97.182217 
3770.367655  	97.050434 
3771.804533  	96.967043 
3773.241411  	97.030630 
3774.678288  	97.086324 
3776.115166  	97.113367 
3777.552044  	97.133237 
3778.988922  	97.163991 
3780.425800  	97.208911 
3781.862678  	97.168151 
3783.299556  	97.163297 
3784.736434  	97.145990 
3786.173312  	97.055560 
3787.610190  	97.053478 
3789.047068  	97.071650 
3790.483946  	97.067153 
3791.920823  	97.088361 
3793.357701  	97.104922 
3794.794579  	97.122257 
3796.231457  	97.237753 
3797.668335  	97.172397 
3799.105213  	97.079830 
3800.542091  	97.232203 
3801.978969  	97.464807 
3803.415847  	97.247464 
3804.852725  	96.912740 
3806.289603  	96.886497 
3807.726481  	97.075179 
3809.163358  	97.045785 
3810.600236  	96.997108 
3812.037114  	97.014589 
3813.473992  	96.984389 
3814.910870  	97.061506 
3816.347748  	97.183537 
3817.784626  	97.100801 
3819.221504  	96.994695 
3820.658382  	96.888442 
3822.095260  	96.809864 
3823.532138  	96.912056 
3824.969016  	96.928242 
3826.405893  	96.917643 
3827.842771  	96.970064 
3829.279649  	97.086907 
3830.716527  	97.129659 
3832.153405  	97.086662 
3833.590283  	97.139949 
3835.027161  	97.133879 
3836.464039  	97.020554 
3837.900917  	97.011970 
3839.337795  	96.876841 
3840.774673  	96.741095 
3842.211551  	96.904208 
3843.648428  	97.032379 
3845.085306  	97.043758 
3846.522184  	97.068747 
3847.959062  	97.024620 
3849.395940  	96.972812 
3850.832818  	97.024129 
3852.269696  	97.173886 
3853.706574  	97.123370 
3855.143452  	96.865855 
3856.580330  	96.941888 
3858.017208  	96.934918 
3859.454086  	96.826722 
3860.890963  	96.946167 
3862.327841  	97.066492 
3863.764719  	96.951212 
3865.201597  	96.979371 
3866.638475  	97.064977 
3868.075353  	97.063907 
3869.512231  	97.087998 
3870.949109  	96.818480 
3872.385987  	96.694377 
3873.822865  	96.847784 
3875.259743  	96.914815 
3876.696621  	96.879307 
3878.133498  	96.889840 
3879.570376  	96.947604 
3881.007254  	97.081897 
3882.444132  	97.055328 
3883.881010  	97.011042 
3885.317888  	97.188401 
3886.754766  	97.171991 
3888.191644  	96.873385 
3889.628522  	96.787696 
3891.065400  	96.856341 
3892.502278  	96.904153 
3893.939156  	96.926186 
3895.376033  	97.009535 
3896.812911  	97.073393 
3898.249789  	96.968866 
3899.686667  	96.808294 
3901.123545  	96.838168 
3902.560423  	96.921523 
3903.997301  	96.829400 
3905.434179  	96.755917 
3906.871057  	96.872385 
3908.307935  	96.916614 
3909.744813  	96.824804 
3911.181691  	96.829395 
3912.618568  	96.856023 
3914.055446  	96.895329 
3915.492324  	96.839365 
3916.929202  	96.762639 
3918.366080  	96.747036 
3919.802958  	96.822550 
3921.239836  	96.810815 
3922.676714  	96.823431 
3924.113592  	96.908464 
3925.550470  	96.882358 
3926.987348  	96.796977 
3928.424226  	96.791307 
3929.861103  	96.781057 
3931.297981  	96.779650 
3932.734859  	96.783861 
3934.171737  	96.788497 
3935.608615  	96.793487 
3937.045493  	96.760166 
3938.482371  	96.709506 
3939.919249  	96.692371 
3941.356127  	96.704184 
3942.793005  	96.705410 
3944.229883  	96.724020 
3945.666761  	96.740323 
3947.103638  	96.745428 
3948.540516  	96.720620 
3949.977394  	96.710357 
3951.414272  	96.723730 
3952.851150  	96.730953 
3954.288028  	96.730164 
3955.724906  	96.719320 
3957.161784  	96.682262 
3958.598662  	96.697902 
3960.035540  	96.723799 
3961.472418  	96.714670 
3962.909296  	96.675115 
3964.346173  	96.647250 
3965.783051  	96.645573 
3967.219929  	96.593590 
3968.656807  	96.554584 
3970.093685  	96.620310 
3971.530563  	96.669860 
3972.967441  	96.656836 
3974.404319  	96.660831 
3975.841197  	96.670888 
3977.278075  	96.654019 
3978.714953  	96.645195 
3980.151831  	96.694141 
3981.588708  	96.747399 
3983.025586  	96.725326 
3984.462464  	96.673379 
3985.899342  	96.623122 
3987.336220  	96.585029 
3988.773098  	96.613819 
3990.209976  	96.677771 
3991.646854  	96.714597 
3993.083732  	96.701449 
3994.520610  	96.645851 
3995.957488  	96.603904 
3997.394366  	96.591908 
3998.831244  	96.597657 
4000.268121  	96.601122 