##TITLE=No Description
##DATA TYPE=INFRARED SPECTRUM
##XUNITS=1/CM
##YUNITS=%T
399.452061  	40.411081 
400.888939  	37.291034 
402.325817  	38.328838 
403.762695  	37.751549 
405.199573  	37.564029 
406.636451  	38.342438 
408.073328  	35.941097 
409.510206  	35.069419 
410.947084  	35.061715 
412.383962  	33.758007 
413.820840  	33.660207 
415.257718  	32.852188 
416.694596  	31.921368 
418.131474  	31.728843 
419.568352  	29.987639 
421.005230  	29.833713 
422.442108  	29.655876 
423.878986  	29.094839 
425.315863  	29.404607 
426.752741  	28.287148 
428.189619  	27.565953 
429.626497  	27.981405 
431.063375  	26.689495 
432.500253  	26.417469 
433.937131  	26.583676 
435.374009  	25.359508 
436.810887  	25.409698 
438.247765  	25.090588 
439.684643  	24.301279 
441.121521  	24.467662 
442.558398  	24.010940 
443.995276  	24.128513 
445.432154  	24.110447 
446.869032  	22.999013 
448.305910  	23.468347 
449.742788  	23.771757 
451.179666  	23.315287 
452.616544  	24.365266 
454.053422  	24.862421 
455.490300  	25.019476 
456.927178  	26.137215 
458.364056  	26.004261 
459.800933  	25.773903 
461.237811  	26.370004 
462.674689  	27.151887 
464.111567  	28.346825 
465.548445  	29.358892 
466.985323  	30.775098 
468.422201  	32.432547 
469.859079  	33.632143 
471.295957  	35.340549 
472.732835  	36.823581 
474.169713  	37.986965 
475.606591  	40.129251 
477.043469  	42.316439 
478.480346  	44.426873 
479.917224  	46.673475 
481.354102  	48.752385 
482.790980  	51.125369 
484.227858  	53.122150 
485.664736  	54.575555 
487.101614  	56.552682 
488.538492  	58.506892 
489.975370  	60.140900 
491.412248  	61.536325 
492.849126  	62.449899 
494.286004  	63.527631 
495.722881  	64.668074 
497.159759  	65.411831 
498.596637  	66.156422 
500.033515  	66.720934 
501.470393  	67.210515 
502.907271  	67.941063 
504.344149  	68.192192 
505.781027  	68.089478 
507.217905  	68.204197 
508.654783  	68.503939 
510.091661  	68.965462 
511.528539  	69.289414 
512.965416  	69.286690 
514.402294  	69.234067 
515.839172  	69.155122 
517.276050  	69.171776 
518.712928  	69.302535 
520.149806  	69.389366 
521.586684  	69.592606 
523.023562  	69.731095 
524.460440  	69.582919 
525.897318  	69.377313 
527.334196  	69.329422 
528.771074  	69.392927 
530.207951  	69.347412 
531.644829  	69.199665 
533.081707  	69.098772 
534.518585  	68.954565 
535.955463  	68.991418 
537.392341  	69.170506 
538.829219  	68.898963 
540.266097  	68.563447 
541.702975  	68.739660 
543.139853  	68.938186 
544.576731  	68.849697 
546.013609  	68.779249 
547.450486  	68.861322 
548.887364  	68.843666 
550.324242  	68.697991 
551.761120  	68.840145 
553.197998  	69.115955 
554.634876  	69.123509 
556.071754  	69.176089 
557.508632  	69.368482 
558.945510  	69.406530 
560.382388  	69.439224 
561.819266  	69.590128 
563.256144  	69.764011 
564.693021  	69.942902 
566.129899  	70.108098 
567.566777  	70.224364 
569.003655  	70.262686 
570.440533  	70.359318 
571.877411  	70.608661 
573.314289  	70.789362 
574.751167  	70.879105 
576.188045  	71.002223 
577.624923  	71.065086 
579.061801  	71.185931 
580.498679  	71.464206 
581.935556  	71.657236 
583.372434  	71.793452 
584.809312  	72.082572 
586.246190  	72.377517 
587.683068  	72.495048 
589.119946  	72.525143 
590.556824  	72.618114 
591.993702  	72.799005 
593.430580  	72.985989 
594.867458  	73.148569 
596.304336  	73.324273 
597.741214  	73.525748 
599.178091  	73.734329 
600.614969  	73.933295 
602.051847  	74.110607 
603.488725  	74.262505 
604.925603  	74.405461 
606.362481  	74.556116 
607.799359  	74.663335 
609.236237  	74.748353 
610.673115  	74.824266 
612.109993  	74.937236 
613.546871  	75.078942 
614.983749  	75.209408 
616.420626  	75.307009 
617.857504  	75.394773 
619.294382  	75.509822 
620.731260  	75.620339 
622.168138  	75.721913 
623.605016  	75.787399 
625.041894  	75.808431 
626.478772  	75.855693 
627.915650  	75.947723 
629.352528  	75.975397 
630.789406  	75.878185 
632.226284  	75.864299 
633.663161  	75.975904 
635.100039  	76.153192 
636.536917  	76.229000 
637.973795  	76.173193 
639.410673  	76.194838 
640.847551  	76.252103 
642.284429  	76.289204 
643.721307  	76.407345 
645.158185  	76.554254 
646.595063  	76.625789 
648.031941  	76.613079 
649.468819  	76.596906 
650.905696  	76.664712 
652.342574  	76.746646 
653.779452  	76.775648 
655.216330  	76.838603 
656.653208  	76.887092 
658.090086  	76.897120 
659.526964  	76.972810 
660.963842  	77.074783 
662.400720  	77.121234 
663.837598  	77.138671 
665.274476  	77.039736 
666.711354  	77.035594 
668.148231  	77.118551 
669.585109  	77.170360 
671.021987  	77.184641 
672.458865  	77.236709 
673.895743  	77.299915 
675.332621  	77.350076 
676.769499  	77.321010 
678.206377  	77.301523 
679.643255  	77.341202 
681.080133  	77.355569 
682.517011  	77.339657 
683.953889  	77.354880 
685.390766  	77.367998 
686.827644  	77.388647 
688.264522  	77.439816 
689.701400  	77.423508 
691.138278  	77.388505 
692.575156  	77.436344 
694.012034  	77.472643 
695.448912  	77.450017 
696.885790  	77.467825 
698.322668  	77.507296 
699.759546  	77.514517 
701.196424  	77.534031 
702.633301  	77.550712 
704.070179  	77.526178 
705.507057  	77.496868 
706.943935  	77.510764 
708.380813  	77.577144 
709.817691  	77.587054 
711.254569  	77.512311 
712.691447  	77.500764 
714.128325  	77.544473 
715.565203  	77.548090 
717.002081  	77.529066 
718.438959  	77.494067 
719.875837  	77.473510 
721.312714  	77.477252 
722.749592  	77.472127 
724.186470  	77.453672 
725.623348  	77.430433 
727.060226  	77.389484 
728.497104  	77.373024 
729.933982  	77.384156 
731.370860  	77.379609 
732.807738  	77.327871 
734.244616  	77.247786 
735.681494  	77.256272 
737.118372  	77.302967 
738.555249  	77.304432 
739.992127  	77.297943 
741.429005  	77.274050 
742.865883  	77.243437 
744.302761  	77.246585 
745.739639  	77.244991 
747.176517  	77.243728 
748.613395  	77.222361 
750.050273  	77.158531 
751.487151  	77.138082 
752.924029  	77.132592 
754.360907  	77.066460 
755.797784  	76.998734 
757.234662  	76.966901 
758.671540  	76.928785 
760.108418  	76.853373 
761.545296  	76.830859 
762.982174  	76.870870 
764.419052  	76.751220 
765.855930  	76.509140 
767.292808  	76.329798 
768.729686  	76.077489 
770.166564  	75.737496 
771.603442  	75.398073 
773.040319  	74.909311 
774.477197  	74.304477 
775.914075  	73.727546 
777.350953  	73.158771 
778.787831  	72.598593 
780.224709  	72.028737 
781.661587  	71.489994 
783.098465  	71.048181 
784.535343  	70.665835 
785.972221  	70.374185 
787.409099  	70.141954 
788.845977  	69.915178 
790.282854  	69.775952 
791.719732  	69.717153 
793.156610  	69.692739 
794.593488  	69.677442 
796.030366  	69.675474 
797.467244  	69.759586 
798.904122  	69.863877 
800.341000  	69.988296 
801.777878  	70.235554 
803.214756  	70.490004 
804.651634  	70.724426 
806.088512  	71.022486 
807.525389  	71.308412 
808.962267  	71.582271 
810.399145  	71.905854 
811.836023  	72.288538 
813.272901  	72.735692 
814.709779  	73.178789 
816.146657  	73.610299 
817.583535  	74.093750 
819.020413  	74.590287 
820.457291  	75.067242 
821.894169  	75.573099 
823.331047  	76.092687 
824.767924  	76.573811 
826.204802  	77.096590 
827.641680  	77.682901 
829.078558  	78.192626 
830.515436  	78.678316 
831.952314  	79.246495 
833.389192  	79.796103 
834.826070  	80.278815 
836.262948  	80.693750 
837.699826  	81.061221 
839.136704  	81.480526 
840.573582  	81.917951 
842.010459  	82.298557 
843.447337  	82.618299 
844.884215  	82.853571 
846.321093  	83.042179 
847.757971  	83.210819 
849.194849  	83.351153 
850.631727  	83.472868 
852.068605  	83.514258 
853.505483  	83.517026 
854.942361  	83.597801 
856.379239  	83.674268 
857.816117  	83.675630 
859.252994  	83.662973 
860.689872  	83.654515 
862.126750  	83.633264 
863.563628  	83.598241 
865.000506  	83.584947 
866.437384  	83.559172 
867.874262  	83.450975 
869.311140  	83.366036 
870.748018  	83.334308 
872.184896  	83.269765 
873.621774  	83.224133 
875.058652  	83.135390 
876.495529  	82.977855 
877.932407  	82.930202 
879.369285  	82.886427 
880.806163  	82.727101 
882.243041  	82.594002 
883.679919  	82.437092 
885.116797  	82.237069 
886.553675  	82.123701 
887.990553  	82.020253 
889.427431  	81.854824 
890.864309  	81.656114 
892.301187  	81.446870 
893.738064  	81.271910 
895.174942  	81.086841 
896.611820  	80.867244 
898.048698  	80.650733 
899.485576  	80.408560 
900.922454  	80.142254 
902.359332  	79.873408 
903.796210  	79.629178 
905.233088  	79.378202 
906.669966  	79.022350 
908.106844  	78.681085 
909.543722  	78.390962 
910.980599  	77.990645 
912.417477  	77.606461 
913.854355  	77.273360 
915.291233  	76.853137 
916.728111  	76.445516 
918.164989  	76.009637 
919.601867  	75.530505 
921.038745  	75.148644 
922.475623  	74.718371 
923.912501  	74.247058 
925.349379  	73.857043 
926.786257  	73.448975 
928.223134  	73.082760 
929.660012  	72.717398 
931.096890  	72.279825 
932.533768  	71.942504 
933.970646  	71.639404 
935.407524  	71.338887 
936.844402  	71.106865 
938.281280  	70.817323 
939.718158  	70.583551 
941.155036  	70.431626 
942.591914  	70.219248 
944.028792  	70.073082 
945.465670  	69.955888 
946.902547  	69.853847 
948.339425  	69.884743 
949.776303  	69.890277 
951.213181  	69.886392 
952.650059  	69.939693 
954.086937  	69.975079 
955.523815  	70.112360 
956.960693  	70.289203 
958.397571  	70.435459 
959.834449  	70.676414 
961.271327  	70.922672 
962.708205  	71.185536 
964.145082  	71.503604 
965.581960  	71.772562 
967.018838  	72.119017 
968.455716  	72.563558 
969.892594  	72.994900 
971.329472  	73.451022 
972.766350  	73.900847 
974.203228  	74.364524 
975.640106  	74.880824 
977.076984  	75.400225 
978.513862  	75.933085 
979.950740  	76.429408 
981.387617  	76.885413 
982.824495  	77.328463 
984.261373  	77.690701 
985.698251  	78.021153 
987.135129  	78.298949 
988.572007  	78.446629 
990.008885  	78.530856 
991.445763  	78.485800 
992.882641  	78.289502 
994.319519  	78.036482 
995.756397  	77.670068 
997.193275  	77.220983 
998.630152  	76.706404 
1000.067030  	76.049906 
1001.503908  	75.323213 
1002.940786  	74.489006 
1004.377664  	73.553302 
1005.814542  	72.610870 
1007.251420  	71.507595 
1008.688298  	70.298359 
1010.125176  	69.071533 
1011.562054  	67.680046 
1012.998932  	66.242905 
1014.435810  	64.702647 
1015.872687  	62.981749 
1017.309565  	61.320757 
1018.746443  	59.525381 
1020.183321  	57.583503 
1021.620199  	55.706715 
1023.057077  	53.664933 
1024.493955  	51.634326 
1025.930833  	49.648190 
1027.367711  	47.499869 
1028.804589  	45.553546 
1030.241467  	43.600678 
1031.678345  	41.530184 
1033.115222  	39.743814 
1034.552100  	37.924262 
1035.988978  	36.201023 
1037.425856  	34.708721 
1038.862734  	33.066103 
1040.299612  	31.697536 
1041.736490  	30.470733 
1043.173368  	29.133961 
1044.610246  	28.151003 
1046.047124  	27.124875 
1047.484002  	26.129142 
1048.920880  	25.467169 
1050.357757  	24.659047 
1051.794635  	24.047230 
1053.231513  	23.550063 
1054.668391  	22.886823 
1056.105269  	22.569796 
1057.542147  	22.178562 
1058.979025  	21.771541 
1060.415903  	21.698650 
1061.852781  	21.386826 
1063.289659  	21.266706 
1064.726537  	21.307480 
1066.163415  	21.031707 
1067.600292  	21.086282 
1069.037170  	21.145761 
1070.474048  	21.069017 
1071.910926  	21.305139 
1073.347804  	21.333473 
1074.784682  	21.460892 
1076.221560  	21.779399 
1077.658438  	21.849701 
1079.095316  	22.241187 
1080.532194  	22.613908 
1081.969072  	22.795527 
1083.405950  	23.347647 
1084.842827  	23.762580 
1086.279705  	24.230045 
1087.716583  	24.964742 
1089.153461  	25.506660 
1090.590339  	26.307495 
1092.027217  	27.192929 
1093.464095  	27.989587 
1094.900973  	29.170062 
1096.337851  	30.301315 
1097.774729  	31.538170 
1099.211607  	33.116289 
1100.648485  	34.579079 
1102.085362  	36.287174 
1103.522240  	38.164654 
1104.959118  	39.962347 
1106.395996  	42.028070 
1107.832874  	44.008950 
1109.269752  	45.870047 
1110.706630  	47.823802 
1112.143508  	49.520638 
1113.580386  	51.082548 
1115.017264  	52.521651 
1116.454142  	53.673163 
1117.891020  	54.750864 
1119.327897  	55.644028 
1120.764775  	56.393895 
1122.201653  	57.124157 
1123.638531  	57.627925 
1125.075409  	58.102966 
1126.512287  	58.585385 
1127.949165  	58.921924 
1129.386043  	59.304911 
1130.822921  	59.613796 
1132.259799  	59.838739 
1133.696677  	60.129597 
1135.133555  	60.318536 
1136.570432  	60.534117 
1138.007310  	60.793472 
1139.444188  	60.949947 
1140.881066  	61.177095 
1142.317944  	61.356192 
1143.754822  	61.462059 
1145.191700  	61.664753 
1146.628578  	61.814346 
1148.065456  	61.984295 
1149.502334  	62.166137 
1150.939212  	62.243692 
1152.376090  	62.430051 
1153.812967  	62.598925 
1155.249845  	62.697248 
1156.686723  	62.930098 
1158.123601  	63.122660 
1159.560479  	63.308163 
1160.997357  	63.546393 
1162.434235  	63.690963 
1163.871113  	63.908190 
1165.307991  	64.161252 
1166.744869  	64.360609 
1168.181747  	64.621038 
1169.618625  	64.825530 
1171.055502  	65.050324 
1172.492380  	65.346338 
1173.929258  	65.560729 
1175.366136  	65.836025 
1176.803014  	66.111675 
1178.239892  	66.309037 
1179.676770  	66.605363 
1181.113648  	66.862354 
1182.550526  	67.079524 
1183.987404  	67.371230 
1185.424282  	67.603800 
1186.861160  	67.858869 
1188.298038  	68.149749 
1189.734915  	68.401550 
1191.171793  	68.696731 
1192.608671  	68.951122 
1194.045549  	69.207774 
1195.482427  	69.522724 
1196.919305  	69.771836 
1198.356183  	70.062984 
1199.793061  	70.370094 
1201.229939  	70.617841 
1202.666817  	70.939591 
1204.103695  	71.226225 
1205.540573  	71.487121 
1206.977450  	71.828125 
1208.414328  	72.113852 
1209.851206  	72.418259 
1211.288084  	72.757004 
1212.724962  	73.046678 
1214.161840  	73.408035 
1215.598718  	73.742737 
1217.035596  	74.022959 
1218.472474  	74.381889 
1219.909352  	74.712618 
1221.346230  	75.049941 
1222.783108  	75.433421 
1224.219985  	75.772501 
1225.656863  	76.157366 
1227.093741  	76.542804 
1228.530619  	76.893106 
1229.967497  	77.320589 
1231.404375  	77.738976 
1232.841253  	78.145489 
1234.278131  	78.602394 
1235.715009  	79.047143 
1237.151887  	79.510344 
1238.588765  	79.983069 
1240.025643  	80.456904 
1241.462520  	80.968922 
1242.899398  	81.454508 
1244.336276  	81.955487 
1245.773154  	82.491911 
1247.210032  	82.976466 
1248.646910  	83.467204 
1250.083788  	83.976771 
1251.520666  	84.451311 
1252.957544  	84.906249 
1254.394422  	85.314123 
1255.831300  	85.687399 
1257.268178  	86.035551 
1258.705055  	86.316695 
1260.141933  	86.576664 
1261.578811  	86.810067 
1263.015689  	86.984641 
1264.452567  	87.161100 
1265.889445  	87.314817 
1267.326323  	87.419779 
1268.763201  	87.517758 
1270.200079  	87.592728 
1271.636957  	87.674491 
1273.073835  	87.784196 
1274.510713  	87.877595 
1275.947590  	87.967915 
1277.384468  	88.032276 
1278.821346  	88.059729 
1280.258224  	88.112511 
1281.695102  	88.172400 
1283.131980  	88.223905 
1284.568858  	88.282319 
1286.005736  	88.325299 
1287.442614  	88.381471 
1288.879492  	88.453166 
1290.316370  	88.510050 
1291.753248  	88.589253 
1293.190125  	88.684124 
1294.627003  	88.757284 
1296.063881  	88.829731 
1297.500759  	88.925621 
1298.937637  	89.029866 
1300.374515  	89.100460 
1301.811393  	89.150860 
1303.248271  	89.233494 
1304.685149  	89.321369 
1306.122027  	89.423325 
1307.558905  	89.509319 
1308.995783  	89.582803 
1310.432660  	89.678155 
1311.869538  	89.759753 
1313.306416  	89.835298 
1314.743294  	89.924095 
1316.180172  	90.004908 
1317.617050  	90.070788 
1319.053928  	90.150748 
1320.490806  	90.216439 
1321.927684  	90.285513 
1323.364562  	90.355132 
1324.801440  	90.386333 
1326.238318  	90.399513 
1327.675195  	90.386002 
1329.112073  	90.385083 
1330.548951  	90.371321 
1331.985829  	90.359601 
1333.422707  	90.332979 
1334.859585  	90.332131 
1336.296463  	90.318033 
1337.733341  	90.307178 
1339.170219  	90.317871 
1340.607097  	90.311351 
1342.043975  	90.343046 
1343.480853  	90.362283 
1344.917730  	90.369818 
1346.354608  	90.416990 
1347.791486  	90.449831 
1349.228364  	90.462416 
1350.665242  	90.472743 
1352.102120  	90.486640 
1353.538998  	90.529047 
1354.975876  	90.589313 
1356.412754  	90.637649 
1357.849632  	90.684270 
1359.286510  	90.717755 
1360.723388  	90.755360 
1362.160265  	90.795407 
1363.597143  	90.825760 
1365.034021  	90.856531 
1366.470899  	90.901126 
1367.907777  	90.913839 
1369.344655  	90.941178 
1370.781533  	90.963490 
1372.218411  	91.009845 
1373.655289  	91.064528 
1375.092167  	91.109360 
1376.529045  	91.138130 
1377.965923  	91.177147 
1379.402800  	91.199670 
1380.839678  	91.219164 
1382.276556  	91.224624 
1383.713434  	91.239903 
1385.150312  	91.302309 
1386.587190  	91.337153 
1388.024068  	91.327190 
1389.460946  	91.363424 
1390.897824  	91.430622 
1392.334702  	91.464763 
1393.771580  	91.470526 
1395.208458  	91.486063 
1396.645335  	91.547428 
1398.082213  	91.589611 
1399.519091  	91.594336 
1400.955969  	91.625806 
1402.392847  	91.674521 
1403.829725  	91.711593 
1405.266603  	91.720104 
1406.703481  	91.715661 
1408.140359  	91.726845 
1409.577237  	91.729175 
1411.014115  	91.724802 
1412.450993  	91.708499 
1413.887871  	91.717090 
1415.324748  	91.731257 
1416.761626  	91.713251 
1418.198504  	91.636655 
1419.635382  	91.593858 
1421.072260  	91.635437 
1422.509138  	91.658799 
1423.946016  	91.651432 
1425.382894  	91.607033 
1426.819772  	91.574300 
1428.256650  	91.516309 
1429.693528  	91.417895 
1431.130406  	91.342709 
1432.567283  	91.276661 
1434.004161  	91.241252 
1435.441039  	91.219281 
1436.877917  	91.073693 
1438.314795  	90.957804 
1439.751673  	90.980449 
1441.188551  	90.980868 
1442.625429  	90.975751 
1444.062307  	90.946232 
1445.499185  	90.909516 
1446.936063  	90.909475 
1448.372941  	90.917352 
1449.809818  	90.918574 
1451.246696  	90.929617 
1452.683574  	90.929123 
1454.120452  	90.940189 
1455.557330  	90.952860 
1456.994208  	90.965761 
1458.431086  	90.945706 
1459.867964  	90.936390 
1461.304842  	90.953253 
1462.741720  	90.976987 
1464.178598  	90.991281 
1465.615476  	90.967543 
1467.052353  	90.933067 
1468.489231  	90.875743 
1469.926109  	90.841586 
1471.362987  	90.808629 
1472.799865  	90.775745 
1474.236743  	90.800193 
1475.673621  	90.788335 
1477.110499  	90.717641 
1478.547377  	90.651170 
1479.984255  	90.601653 
1481.421133  	90.561247 
1482.858011  	90.536898 
1484.294888  	90.484893 
1485.731766  	90.346585 
1487.168644  	90.169141 
1488.605522  	89.985503 
1490.042400  	89.853230 
1491.479278  	89.719373 
1492.916156  	89.592766 
1494.353034  	89.457783 
1495.789912  	89.283895 
1497.226790  	89.101353 
1498.663668  	88.970954 
1500.100546  	88.886242 
1501.537423  	88.813721 
1502.974301  	88.711312 
1504.411179  	88.671808 
1505.848057  	88.659206 
1507.284935  	88.628068 
1508.721813  	88.623016 
1510.158691  	88.660548 
1511.595569  	88.691668 
1513.032447  	88.764283 
1514.469325  	88.809556 
1515.906203  	88.851104 
1517.343081  	88.969591 
1518.779958  	89.019182 
1520.216836  	88.978883 
1521.653714  	88.991522 
1523.090592  	89.112331 
1524.527470  	89.231543 
1525.964348  	89.335622 
1527.401226  	89.358517 
1528.838104  	89.373835 
1530.274982  	89.444799 
1531.711860  	89.499992 
1533.148738  	89.549186 
1534.585616  	89.629367 
1536.022493  	89.696647 
1537.459371  	89.761302 
1538.896249  	89.817225 
1540.333127  	89.813368 
1541.770005  	89.815097 
1543.206883  	89.898230 
1544.643761  	89.983073 
1546.080639  	89.976807 
1547.517517  	89.847980 
1548.954395  	89.829184 
1550.391273  	89.817968 
1551.828151  	89.815020 
1553.265028  	89.789980 
1554.701906  	89.758448 
1556.138784  	89.762270 
1557.575662  	89.766962 
1559.012540  	89.730190 
1560.449418  	89.687798 
1561.886296  	89.667933 
1563.323174  	89.653657 
1564.760052  	89.628976 
1566.196930  	89.567371 
1567.633808  	89.519019 
1569.070686  	89.499297 
1570.507563  	89.383341 
1571.944441  	89.308025 
1573.381319  	89.278064 
1574.818197  	89.239774 
1576.255075  	89.228397 
1577.691953  	89.161038 
1579.128831  	89.082485 
1580.565709  	89.037308 
1582.002587  	88.983362 
1583.439465  	88.921997 
1584.876343  	88.868747 
1586.313221  	88.828388 
1587.750098  	88.783116 
1589.186976  	88.674902 
1590.623854  	88.596522 
1592.060732  	88.574484 
1593.497610  	88.530739 
1594.934488  	88.508938 
1596.371366  	88.463680 
1597.808244  	88.362493 
1599.245122  	88.311838 
1600.682000  	88.279671 
1602.118878  	88.260126 
1603.555756  	88.292232 
1604.992633  	88.230918 
1606.429511  	88.149926 
1607.866389  	88.107769 
1609.303267  	88.026230 
1610.740145  	88.027086 
1612.177023  	88.084014 
1613.613901  	88.118579 
1615.050779  	88.171403 
1616.487657  	88.156786 
1617.924535  	88.122022 
1619.361413  	88.225874 
1620.798291  	88.297710 
1622.235168  	88.371855 
1623.672046  	88.451285 
1625.108924  	88.435775 
1626.545802  	88.496117 
1627.982680  	88.594026 
1629.419558  	88.645067 
1630.856436  	88.744721 
1632.293314  	88.877615 
1633.730192  	88.978825 
1635.167070  	89.101964 
1636.603948  	89.217497 
1638.040826  	89.428188 
1639.477703  	89.660466 
1640.914581  	89.843484 
1642.351459  	90.033321 
1643.788337  	90.178164 
1645.225215  	90.310253 
1646.662093  	90.502078 
1648.098971  	90.603098 
1649.535849  	90.826869 
1650.972727  	91.094504 
1652.409605  	91.335181 
1653.846483  	91.707284 
1655.283361  	91.673716 
1656.720239  	91.710494 
1658.157116  	91.945844 
1659.593994  	92.179920 
1661.030872  	92.319223 
1662.467750  	92.569059 
1663.904628  	92.758812 
1665.341506  	92.824875 
1666.778384  	92.931153 
1668.215262  	93.061525 
1669.652140  	93.210978 
1671.089018  	93.338506 
1672.525896  	93.437903 
1673.962774  	93.575539 
1675.399651  	93.665562 
1676.836529  	93.722880 
1678.273407  	93.859783 
1679.710285  	94.028182 
1681.147163  	94.191302 
1682.584041  	94.286527 
1684.020919  	94.319871 
1685.457797  	94.432616 
1686.894675  	94.563913 
1688.331553  	94.696791 
1689.768431  	94.822089 
1691.205309  	94.914596 
1692.642186  	95.045780 
1694.079064  	95.119882 
1695.515942  	95.106662 
1696.952820  	95.166110 
1698.389698  	95.271733 
1699.826576  	95.338448 
1701.263454  	95.415537 
1702.700332  	95.477234 
1704.137210  	95.531890 
1705.574088  	95.557601 
1707.010966  	95.589534 
1708.447844  	95.636347 
1709.884721  	95.667955 
1711.321599  	95.736100 
1712.758477  	95.823355 
1714.195355  	95.871358 
1715.632233  	95.895366 
1717.069111  	95.936485 
1718.505989  	95.998555 
1719.942867  	96.027365 
1721.379745  	96.047287 
1722.816623  	96.096618 
1724.253501  	96.156763 
1725.690379  	96.173940 
1727.127256  	96.229891 
1728.564134  	96.287725 
1730.001012  	96.300403 
1731.437890  	96.365220 
1732.874768  	96.412206 
1734.311646  	96.437437 
1735.748524  	96.544637 
1737.185402  	96.631151 
1738.622280  	96.674254 
1740.059158  	96.721364 
1741.496036  	96.786696 
1742.932914  	96.834082 
1744.369791  	96.866235 
1745.806669  	96.940962 
1747.243547  	97.028183 
1748.680425  	97.033156 
1750.117303  	97.066805 
1751.554181  	97.138440 
1752.991059  	97.183902 
1754.427937  	97.244809 
1755.864815  	97.270706 
1757.301693  	97.306997 
1758.738571  	97.413811 
1760.175449  	97.458033 
1761.612326  	97.470263 
1763.049204  	97.495713 
1764.486082  	97.508822 
1765.922960  	97.568894 
1767.359838  	97.592695 
1768.796716  	97.610100 
1770.233594  	97.685582 
1771.670472  	97.693676 
1773.107350  	97.620024 
1774.544228  	97.695475 
1775.981106  	97.765844 
1777.417984  	97.816929 
1778.854861  	97.855197 
1780.291739  	97.864635 
1781.728617  	97.862521 
1783.165495  	97.876295 
1784.602373  	97.907496 
1786.039251  	97.943772 
1787.476129  	97.946642 
1788.913007  	97.970176 
1790.349885  	98.053215 
1791.786763  	98.042309 
1793.223641  	97.970500 
1794.660519  	97.967670 
1796.097396  	98.046210 
1797.534274  	98.151064 
1798.971152  	98.147614 
1800.408030  	98.110195 
1801.844908  	98.110871 
1803.281786  	98.104920 
1804.718664  	98.135110 
1806.155542  	98.150507 
1807.592420  	98.169380 
1809.029298  	98.213568 
1810.466176  	98.230027 
1811.903054  	98.226008 
1813.339931  	98.242048 
1814.776809  	98.248973 
1816.213687  	98.236059 
1817.650565  	98.213300 
1819.087443  	98.197309 
1820.524321  	98.209941 
1821.961199  	98.217269 
1823.398077  	98.231503 
1824.834955  	98.232957 
1826.271833  	98.204634 
1827.708711  	98.217346 
1829.145589  	98.219680 
1830.582466  	98.231869 
1832.019344  	98.276062 
1833.456222  	98.282006 
1834.893100  	98.272014 
1836.329978  	98.292502 
1837.766856  	98.258430 
1839.203734  	98.244694 
1840.640612  	98.270216 
1842.077490  	98.291875 
1843.514368  	98.312482 
1844.951246  	98.287473 
1846.388124  	98.262294 
1847.825001  	98.262715 
1849.261879  	98.245236 
1850.698757  	98.278400 
1852.135635  	98.291798 
1853.572513  	98.221737 
1855.009391  	98.222060 
1856.446269  	98.224689 
1857.883147  	98.192348 
1859.320025  	98.190368 
1860.756903  	98.163243 
1862.193781  	98.178202 
1863.630659  	98.196690 
1865.067536  	98.161799 
1866.504414  	98.207409 
1867.941292  	98.233047 
1869.378170  	98.158739 
1870.815048  	98.122321 
1872.251926  	98.115116 
1873.688804  	98.201914 
1875.125682  	98.284184 
1876.562560  	98.207884 
1877.999438  	98.195950 
1879.436316  	98.217268 
1880.873194  	98.231512 
1882.310072  	98.287051 
1883.746949  	98.310235 
1885.183827  	98.328439 
1886.620705  	98.390371 
1888.057583  	98.379353 
1889.494461  	98.343626 
1890.931339  	98.342366 
1892.368217  	98.322403 
1893.805095  	98.323058 
1895.241973  	98.335691 
1896.678851  	98.350570 
1898.115729  	98.370815 
1899.552607  	98.320252 
1900.989484  	98.317264 
1902.426362  	98.345187 
1903.863240  	98.380567 
1905.300118  	98.428742 
1906.736996  	98.431336 
1908.173874  	98.469096 
1909.610752  	98.541696 
1911.047630  	98.499921 
1912.484508  	98.483360 
1913.921386  	98.539806 
1915.358264  	98.511328 
1916.795142  	98.493027 
1918.232019  	98.476945 
1919.668897  	98.453474 
1921.105775  	98.486569 
1922.542653  	98.515293 
1923.979531  	98.520521 
1925.416409  	98.495709 
1926.853287  	98.479302 
1928.290165  	98.602074 
1929.727043  	98.615990 
1931.163921  	98.497127 
1932.600799  	98.495667 
1934.037677  	98.550131 
1935.474554  	98.634231 
1936.911432  	98.680327 
1938.348310  	98.669160 
1939.785188  	98.719369 
1941.222066  	98.688072 
1942.658944  	98.599427 
1944.095822  	98.653699 
1945.532700  	98.671083 
1946.969578  	98.645982 
1948.406456  	98.667657 
1949.843334  	98.667946 
1951.280212  	98.761809 
1952.717089  	98.676991 
1954.153967  	98.533622 
1955.590845  	98.805391 
1957.027723  	98.979030 
1958.464601  	98.949191 
1959.901479  	99.058953 
1961.338357  	98.985137 
1962.775235  	98.828649 
1964.212113  	98.848858 
1965.648991  	98.980589 
1967.085869  	99.058963 
1968.522747  	98.843678 
1969.959624  	98.843339 
1971.396502  	98.943417 
1972.833380  	98.686969 
1974.270258  	98.632891 
1975.707136  	98.799518 
1977.144014  	98.571919 
1978.580892  	98.336948 
1980.017770  	98.315948 
1981.454648  	98.339312 
1982.891526  	98.518670 
1984.328404  	98.652522 
1985.765282  	98.639015 
1987.202159  	98.578214 
1988.639037  	98.558066 
1990.075915  	98.613210 
1991.512793  	98.631787 
1992.949671  	98.640108 
1994.386549  	98.666989 
1995.823427  	98.636244 
1997.260305  	98.624207 
1998.697183  	98.723843 
2000.134061  	98.762223 
2001.570939  	98.778235 
2003.007817  	98.830179 
2004.444694  	99.226117 
2005.881572  	99.525756 
2007.318450  	99.004252 
2008.755328  	98.616875 
2010.192206  	98.726352 
2011.629084  	98.822408 
2013.065962  	99.129444 
2014.502840  	99.329434 
2015.939718  	99.235446 
2017.376596  	99.102633 
2018.813474  	98.821323 
2020.250352  	98.798863 
2021.687229  	98.977954 
2023.124107  	98.865492 
2024.560985  	98.778444 
2025.997863  	98.751815 
2027.434741  	98.843390 
2028.871619  	99.264647 
2030.308497  	99.424053 
2031.745375  	99.270697 
2033.182253  	98.918863 
2034.619131  	98.508058 
2036.056009  	98.617073 
2037.492887  	98.855053 
2038.929764  	98.783497 
2040.366642  	98.848288 
2041.803520  	98.978744 
2043.240398  	99.106962 
2044.677276  	99.227440 
2046.114154  	99.019902 
2047.551032  	98.755036 
2048.987910  	98.714280 
2050.424788  	98.745297 
2051.861666  	98.790300 
2053.298544  	98.898058 
2054.735422  	99.014370 
2056.172299  	98.917916 
2057.609177  	98.745036 
2059.046055  	98.782622 
2060.482933  	98.810844 
2061.919811  	98.789241 
2063.356689  	98.817086 
2064.793567  	98.759393 
2066.230445  	98.780514 
2067.667323  	98.743256 
2069.104201  	98.469014 
2070.541079  	98.463762 
2071.977957  	98.722324 
2073.414834  	98.789915 
2074.851712  	98.756246 
2076.288590  	98.667492 
2077.725468  	98.547578 
2079.162346  	98.547540 
2080.599224  	98.650580 
2082.036102  	98.770251 
2083.472980  	98.772614 
2084.909858  	98.748495 
2086.346736  	98.834108 
2087.783614  	98.767204 
2089.220492  	98.548188 
2090.657369  	98.470653 
2092.094247  	98.569014 
2093.531125  	98.669186 
2094.968003  	98.601877 
2096.404881  	98.631917 
2097.841759  	98.892764 
2099.278637  	98.826064 
2100.715515  	98.586163 
2102.152393  	98.689301 
2103.589271  	98.839603 
2105.026149  	98.871157 
2106.463027  	98.814924 
2107.899904  	98.619384 
2109.336782  	98.584929 
2110.773660  	98.708482 
2112.210538  	98.721275 
2113.647416  	98.679093 
2115.084294  	98.625407 
2116.521172  	98.603085 
2117.958050  	98.642360 
2119.394928  	98.673264 
2120.831806  	98.686033 
2122.268684  	98.598705 
2123.705562  	98.542261 
2125.142440  	98.697220 
2126.579317  	98.826847 
2128.016195  	98.888723 
2129.453073  	98.980947 
2130.889951  	98.979970 
2132.326829  	98.946775 
2133.763707  	98.872500 
2135.200585  	98.793217 
2136.637463  	98.858391 
2138.074341  	98.927013 
2139.511219  	99.079041 
2140.948097  	99.064023 
2142.384975  	98.555528 
2143.821852  	98.424990 
2145.258730  	98.886816 
2146.695608  	99.008431 
2148.132486  	98.780003 
2149.569364  	98.603942 
2151.006242  	98.675889 
2152.443120  	98.903504 
2153.879998  	98.874794 
2155.316876  	98.864507 
2156.753754  	99.058611 
2158.190632  	99.076774 
2159.627510  	98.903322 
2161.064387  	98.585550 
2162.501265  	98.495677 
2163.938143  	98.709787 
2165.375021  	98.857594 
2166.811899  	98.857334 
2168.248777  	98.609679 
2169.685655  	98.453946 
2171.122533  	98.795947 
2172.559411  	99.134025 
2173.996289  	99.197696 
2175.433167  	99.106242 
2176.870045  	98.801822 
2178.306922  	98.607284 
2179.743800  	98.528263 
2181.180678  	98.537164 
2182.617556  	98.654475 
2184.054434  	98.499612 
2185.491312  	98.411154 
2186.928190  	98.637701 
2188.365068  	98.748393 
2189.801946  	98.791086 
2191.238824  	98.491838 
2192.675702  	97.961192 
2194.112580  	98.186476 
2195.549457  	98.698841 
2196.986335  	98.660946 
2198.423213  	98.588557 
2199.860091  	98.630350 
2201.296969  	98.603404 
2202.733847  	98.541921 
2204.170725  	98.458171 
2205.607603  	98.546104 
2207.044481  	98.608606 
2208.481359  	98.459461 
2209.918237  	98.450920 
2211.355115  	98.544393 
2212.791992  	98.549779 
2214.228870  	98.494157 
2215.665748  	98.395929 
2217.102626  	98.420062 
2218.539504  	98.406665 
2219.976382  	98.202654 
2221.413260  	98.185574 
2222.850138  	98.369260 
2224.287016  	98.407528 
2225.723894  	98.355191 
2227.160772  	98.476071 
2228.597650  	98.681289 
2230.034527  	98.573628 
2231.471405  	98.380036 
2232.908283  	98.516954 
2234.345161  	98.640328 
2235.782039  	98.579695 
2237.218917  	98.504217 
2238.655795  	98.407077 
2240.092673  	98.430171 
2241.529551  	98.456440 
2242.966429  	98.351596 
2244.403307  	98.385303 
2245.840185  	98.399497 
2247.277062  	98.277150 
2248.713940  	98.286794 
2250.150818  	98.325498 
2251.587696  	98.376719 
2253.024574  	98.498775 
2254.461452  	98.444896 
2255.898330  	98.304569 
2257.335208  	98.282832 
2258.772086  	98.337086 
2260.208964  	98.386013 
2261.645842  	98.410965 
2263.082720  	98.393771 
2264.519597  	98.400040 
2265.956475  	98.416426 
2267.393353  	98.382068 
2268.830231  	98.296444 
2270.267109  	98.290176 
2271.703987  	98.327470 
2273.140865  	98.288916 
2274.577743  	98.223621 
2276.014621  	98.199854 
2277.451499  	98.196368 
2278.888377  	98.271661 
2280.325255  	98.331370 
2281.762132  	98.309687 
2283.199010  	98.289844 
2284.635888  	98.272111 
2286.072766  	98.221062 
2287.509644  	98.197026 
2288.946522  	98.218660 
2290.383400  	98.287468 
2291.820278  	98.307030 
2293.257156  	98.247842 
2294.694034  	98.205993 
2296.130912  	98.191619 
2297.567790  	98.202038 
2299.004667  	98.195617 
2300.441545  	98.216242 
2301.878423  	98.225372 
2303.315301  	98.232630 
2304.752179  	98.202207 
2306.189057  	98.193966 
2307.625935  	98.175269 
2309.062813  	98.131019 
2310.499691  	98.111301 
2311.936569  	98.102641 
2313.373447  	98.095770 
2314.810325  	98.040148 
2316.247202  	97.980609 
2317.684080  	98.007241 
2319.120958  	97.979458 
2320.557836  	97.903642 
2321.994714  	97.897749 
2323.431592  	97.831287 
2324.868470  	97.822925 
2326.305348  	98.008244 
2327.742226  	98.118250 
2329.179104  	98.111894 
2330.615982  	98.140252 
2332.052860  	98.118598 
2333.489737  	98.062898 
2334.926615  	98.093601 
2336.363493  	98.155722 
2337.800371  	98.213478 
2339.237249  	98.299735 
2340.674127  	98.308015 
2342.111005  	98.159683 
2343.547883  	98.054072 
2344.984761  	98.069859 
2346.421639  	98.022684 
2347.858517  	97.956512 
2349.295395  	97.962206 
2350.732273  	97.981020 
2352.169150  	97.993600 
2353.606028  	97.988407 
2355.042906  	97.951553 
2356.479784  	97.931493 
2357.916662  	97.917680 
2359.353540  	97.914843 
2360.790418  	97.980381 
2362.227296  	98.027840 
2363.664174  	98.042402 
2365.101052  	98.047847 
2366.537930  	98.062035 
2367.974808  	98.150377 
2369.411685  	98.246842 
2370.848563  	98.259545 
2372.285441  	98.232961 
2373.722319  	98.202253 
2375.159197  	98.214296 
2376.596075  	98.229572 
2378.032953  	98.212161 
2379.469831  	98.207462 
2380.906709  	98.217019 
2382.343587  	98.227426 
2383.780465  	98.210481 
2385.217343  	98.160214 
2386.654220  	98.111955 
2388.091098  	98.138877 
2389.527976  	98.146991 
2390.964854  	98.172962 
2392.401732  	98.183482 
2393.838610  	98.130932 
2395.275488  	98.130115 
2396.712366  	98.175076 
2398.149244  	98.191010 
2399.586122  	98.179379 
2401.023000  	98.152473 
2402.459878  	98.173834 
2403.896755  	98.215431 
2405.333633  	98.222244 
2406.770511  	98.239804 
2408.207389  	98.205152 
2409.644267  	98.118189 
2411.081145  	98.105737 
2412.518023  	98.153234 
2413.954901  	98.216717 
2415.391779  	98.253885 
2416.828657  	98.227531 
2418.265535  	98.200019 
2419.702413  	98.159863 
2421.139290  	98.122320 
2422.576168  	98.137272 
2424.013046  	98.105264 
2425.449924  	98.071611 
2426.886802  	98.135156 
2428.323680  	98.148665 
2429.760558  	98.071180 
2431.197436  	98.034530 
2432.634314  	98.064138 
2434.071192  	98.100459 
2435.508070  	98.105489 
2436.944948  	98.091259 
2438.381825  	98.057832 
2439.818703  	98.056772 
2441.255581  	98.136813 
2442.692459  	98.161624 
2444.129337  	98.120122 
2445.566215  	98.135396 
2447.003093  	98.108572 
2448.439971  	98.005114 
2449.876849  	97.938521 
2451.313727  	97.941593 
2452.750605  	98.019821 
2454.187483  	98.064974 
2455.624360  	98.035095 
2457.061238  	98.063940 
2458.498116  	98.085879 
2459.934994  	98.063153 
2461.371872  	98.106737 
2462.808750  	98.117175 
2464.245628  	98.051207 
2465.682506  	98.021426 
2467.119384  	98.027742 
2468.556262  	98.054853 
2469.993140  	98.063514 
2471.430018  	98.024164 
2472.866895  	98.002313 
2474.303773  	97.980831 
2475.740651  	97.963322 
2477.177529  	98.023588 
2478.614407  	98.073957 
2480.051285  	98.026273 
2481.488163  	97.986113 
2482.925041  	98.037550 
2484.361919  	98.061473 
2485.798797  	97.972756 
2487.235675  	97.914453 
2488.672553  	97.939091 
2490.109430  	97.935270 
2491.546308  	97.915855 
2492.983186  	97.932415 
2494.420064  	97.970609 
2495.856942  	97.999424 
2497.293820  	97.983448 
2498.730698  	97.977356 
2500.167576  	98.003165 
2501.604454  	97.989284 
2503.041332  	97.948996 
2504.478210  	97.914857 
2505.915088  	97.902956 
2507.351965  	97.916862 
2508.788843  	97.898709 
2510.225721  	97.889410 
2511.662599  	97.909500 
2513.099477  	97.863798 
2514.536355  	97.836377 
2515.973233  	97.921412 
2517.410111  	97.995570 
2518.846989  	97.982304 
2520.283867  	97.913919 
2521.720745  	97.837812 
2523.157623  	97.810027 
2524.594500  	97.853794 
2526.031378  	97.904547 
2527.468256  	97.862876 
2528.905134  	97.817265 
2530.342012  	97.882857 
2531.778890  	97.911969 
2533.215768  	97.855199 
2534.652646  	97.843238 
2536.089524  	97.853836 
2537.526402  	97.860453 
2538.963280  	97.870435 
2540.400158  	97.835810 
2541.837035  	97.796983 
2543.273913  	97.790254 
2544.710791  	97.813612 
2546.147669  	97.879722 
2547.584547  	97.920486 
2549.021425  	97.903097 
2550.458303  	97.849933 
2551.895181  	97.774509 
2553.332059  	97.743268 
2554.768937  	97.745123 
2556.205815  	97.743677 
2557.642693  	97.796691 
2559.079570  	97.833321 
2560.516448  	97.776609 
2561.953326  	97.721087 
2563.390204  	97.695683 
2564.827082  	97.687705 
2566.263960  	97.723276 
2567.700838  	97.733832 
2569.137716  	97.695743 
2570.574594  	97.692374 
2572.011472  	97.696845 
2573.448350  	97.651752 
2574.885228  	97.640262 
2576.322105  	97.687721 
2577.758983  	97.694087 
2579.195861  	97.657554 
2580.632739  	97.622549 
2582.069617  	97.590559 
2583.506495  	97.612967 
2584.943373  	97.662994 
2586.380251  	97.644815 
2587.817129  	97.619042 
2589.254007  	97.648775 
2590.690885  	97.664504 
2592.127763  	97.640741 
2593.564641  	97.617627 
2595.001518  	97.603075 
2596.438396  	97.584248 
2597.875274  	97.588486 
2599.312152  	97.634998 
2600.749030  	97.647623 
2602.185908  	97.574464 
2603.622786  	97.491231 
2605.059664  	97.487787 
2606.496542  	97.554337 
2607.933420  	97.591932 
2609.370298  	97.552494 
2610.807176  	97.500470 
2612.244053  	97.493779 
2613.680931  	97.529984 
2615.117809  	97.555096 
2616.554687  	97.547380 
2617.991565  	97.559082 
2619.428443  	97.556676 
2620.865321  	97.501409 
2622.302199  	97.470434 
2623.739077  	97.461109 
2625.175955  	97.440504 
2626.612833  	97.442509 
2628.049711  	97.439890 
2629.486588  	97.435144 
2630.923466  	97.463708 
2632.360344  	97.478801 
2633.797222  	97.469792 
2635.234100  	97.456832 
2636.670978  	97.442438 
2638.107856  	97.451170 
2639.544734  	97.458377 
2640.981612  	97.441956 
2642.418490  	97.431143 
2643.855368  	97.421733 
2645.292246  	97.421298 
2646.729123  	97.442568 
2648.166001  	97.449819 
2649.602879  	97.433371 
2651.039757  	97.409861 
2652.476635  	97.383559 
2653.913513  	97.361695 
2655.350391  	97.359972 
2656.787269  	97.382850 
2658.224147  	97.389759 
2659.661025  	97.360817 
2661.097903  	97.344910 
2662.534781  	97.359250 
2663.971658  	97.367002 
2665.408536  	97.352809 
2666.845414  	97.352030 
2668.282292  	97.377610 
2669.719170  	97.368352 
2671.156048  	97.336665 
2672.592926  	97.343657 
2674.029804  	97.330274 
2675.466682  	97.289324 
2676.903560  	97.299805 
2678.340438  	97.322138 
2679.777316  	97.297861 
2681.214193  	97.252021 
2682.651071  	97.242828 
2684.087949  	97.284889 
2685.524827  	97.293976 
2686.961705  	97.274390 
2688.398583  	97.291508 
2689.835461  	97.275459 
2691.272339  	97.240487 
2692.709217  	97.255799 
2694.146095  	97.241867 
2695.582973  	97.204876 
2697.019851  	97.209288 
2698.456728  	97.214339 
2699.893606  	97.216715 
2701.330484  	97.217507 
2702.767362  	97.203408 
2704.204240  	97.197549 
2705.641118  	97.176367 
2707.077996  	97.144177 
2708.514874  	97.131739 
2709.951752  	97.127477 
2711.388630  	97.157488 
2712.825508  	97.184030 
2714.262386  	97.129628 
2715.699263  	97.078843 
2717.136141  	97.103950 
2718.573019  	97.125516 
2720.009897  	97.102533 
2721.446775  	97.087928 
2722.883653  	97.089829 
2724.320531  	97.061595 
2725.757409  	97.048401 
2727.194287  	97.100691 
2728.631165  	97.114688 
2730.068043  	97.043011 
2731.504921  	96.992703 
2732.941798  	97.007871 
2734.378676  	97.025967 
2735.815554  	97.006168 
2737.252432  	96.990862 
2738.689310  	96.998030 
2740.126188  	96.980211 
2741.563066  	96.966904 
2742.999944  	96.981715 
2744.436822  	96.982987 
2745.873700  	96.994685 
2747.310578  	97.001832 
2748.747456  	96.981762 
2750.184333  	96.994414 
2751.621211  	96.988331 
2753.058089  	96.938528 
2754.494967  	96.941144 
2755.931845  	96.946680 
2757.368723  	96.909502 
2758.805601  	96.901937 
2760.242479  	96.903178 
2761.679357  	96.890222 
2763.116235  	96.882988 
2764.553113  	96.859828 
2765.989991  	96.846282 
2767.426868  	96.860103 
2768.863746  	96.861066 
2770.300624  	96.855938 
2771.737502  	96.856444 
2773.174380  	96.838139 
2774.611258  	96.818896 
2776.048136  	96.833948 
2777.485014  	96.853218 
2778.921892  	96.844659 
2780.358770  	96.834176 
2781.795648  	96.822788 
2783.232526  	96.805840 
2784.669403  	96.803312 
2786.106281  	96.786145 
2787.543159  	96.754053 
2788.980037  	96.742483 
2790.416915  	96.723283 
2791.853793  	96.688577 
2793.290671  	96.659798 
2794.727549  	96.658903 
2796.164427  	96.713486 
2797.601305  	96.749282 
2799.038183  	96.725122 
2800.475061  	96.713997 
2801.911938  	96.680014 
2803.348816  	96.601621 
2804.785694  	96.581668 
2806.222572  	96.623175 
2807.659450  	96.651114 
2809.096328  	96.625571 
2810.533206  	96.582261 
2811.970084  	96.605538 
2813.406962  	96.633752 
2814.843840  	96.574629 
2816.280718  	96.511339 
2817.717596  	96.511103 
2819.154474  	96.531002 
2820.591351  	96.516556 
2822.028229  	96.472351 
2823.465107  	96.469377 
2824.901985  	96.487457 
2826.338863  	96.466321 
2827.775741  	96.461069 
2829.212619  	96.469061 
2830.649497  	96.425833 
2832.086375  	96.380183 
2833.523253  	96.376125 
2834.960131  	96.376571 
2836.397009  	96.364905 
2837.833886  	96.351947 
2839.270764  	96.335808 
2840.707642  	96.315132 
2842.144520  	96.308868 
2843.581398  	96.322503 
2845.018276  	96.338505 
2846.455154  	96.346758 
2847.892032  	96.333501 
2849.328910  	96.308731 
2850.765788  	96.306491 
2852.202666  	96.308498 
2853.639544  	96.278410 
2855.076421  	96.244439 
2856.513299  	96.248571 
2857.950177  	96.244655 
2859.387055  	96.189276 
2860.823933  	96.166497 
2862.260811  	96.201548 
2863.697689  	96.206347 
2865.134567  	96.179567 
2866.571445  	96.130293 
2868.008323  	96.060270 
2869.445201  	96.051014 
2870.882079  	96.082746 
2872.318956  	96.077174 
2873.755834  	96.048913 
2875.192712  	96.009816 
2876.629590  	95.978371 
2878.066468  	95.955511 
2879.503346  	95.929037 
2880.940224  	95.950951 
2882.377102  	95.964622 
2883.813980  	95.913548 
2885.250858  	95.904285 
2886.687736  	95.909322 
2888.124614  	95.865231 
2889.561491  	95.866581 
2890.998369  	95.885248 
2892.435247  	95.839184 
2893.872125  	95.789044 
2895.309003  	95.787500 
2896.745881  	95.811994 
2898.182759  	95.811971 
2899.619637  	95.787053 
2901.056515  	95.761865 
2902.493393  	95.709912 
2903.930271  	95.674145 
2905.367149  	95.689283 
2906.804026  	95.671265 
2908.240904  	95.622652 
2909.677782  	95.605594 
2911.114660  	95.616696 
2912.551538  	95.644319 
2913.988416  	95.636561 
2915.425294  	95.580315 
2916.862172  	95.563015 
2918.299050  	95.602001 
2919.735928  	95.629150 
2921.172806  	95.621056 
2922.609684  	95.614649 
2924.046561  	95.606127 
2925.483439  	95.553125 
2926.920317  	95.499324 
2928.357195  	95.478709 
2929.794073  	95.438467 
2931.230951  	95.369342 
2932.667829  	95.321030 
2934.104707  	95.341558 
2935.541585  	95.363561 
2936.978463  	95.291404 
2938.415341  	95.251435 
2939.852219  	95.291337 
2941.289096  	95.267118 
2942.725974  	95.233413 
2944.162852  	95.223188 
2945.599730  	95.137070 
2947.036608  	95.063069 
2948.473486  	95.054555 
2949.910364  	95.046505 
2951.347242  	95.050483 
2952.784120  	95.055264 
2954.220998  	95.064959 
2955.657876  	95.071679 
2957.094754  	95.027693 
2958.531631  	95.005398 
2959.968509  	95.010473 
2961.405387  	94.985679 
2962.842265  	94.988124 
2964.279143  	94.975879 
2965.716021  	94.919376 
2967.152899  	94.909950 
2968.589777  	94.894432 
2970.026655  	94.830456 
2971.463533  	94.803846 
2972.900411  	94.820928 
2974.337289  	94.837016 
2975.774166  	94.820064 
2977.211044  	94.779203 
2978.647922  	94.755423 
2980.084800  	94.730243 
2981.521678  	94.702652 
2982.958556  	94.695904 
2984.395434  	94.657766 
2985.832312  	94.580297 
2987.269190  	94.574228 
2988.706068  	94.654462 
2990.142946  	94.654612 
2991.579824  	94.577921 
2993.016701  	94.608720 
2994.453579  	94.658652 
2995.890457  	94.597725 
2997.327335  	94.550029 
2998.764213  	94.514648 
3000.201091  	94.440801 
3001.637969  	94.410054 
3003.074847  	94.407984 
3004.511725  	94.420959 
3005.948603  	94.438832 
3007.385481  	94.400185 
3008.822359  	94.384679 
3010.259236  	94.394089 
3011.696114  	94.329980 
3013.132992  	94.283978 
3014.569870  	94.297600 
3016.006748  	94.289945 
3017.443626  	94.277113 
3018.880504  	94.277674 
3020.317382  	94.278130 
3021.754260  	94.259325 
3023.191138  	94.205903 
3024.628016  	94.156861 
3026.064894  	94.106842 
3027.501771  	94.038320 
3028.938649  	94.006586 
3030.375527  	94.007629 
3031.812405  	93.996820 
3033.249283  	93.992653 
3034.686161  	94.003759 
3036.123039  	93.973539 
3037.559917  	93.889256 
3038.996795  	93.832751 
3040.433673  	93.811689 
3041.870551  	93.784923 
3043.307429  	93.795982 
3044.744306  	93.816248 
3046.181184  	93.788167 
3047.618062  	93.764260 
3049.054940  	93.745954 
3050.491818  	93.725154 
3051.928696  	93.738402 
3053.365574  	93.734806 
3054.802452  	93.680420 
3056.239330  	93.607913 
3057.676208  	93.553416 
3059.113086  	93.557547 
3060.549964  	93.587373 
3061.986842  	93.581205 
3063.423719  	93.545671 
3064.860597  	93.511286 
3066.297475  	93.494230 
3067.734353  	93.477604 
3069.171231  	93.457393 
3070.608109  	93.445772 
3072.044987  	93.425796 
3073.481865  	93.406663 
3074.918743  	93.378776 
3076.355621  	93.339563 
3077.792499  	93.330702 
3079.229377  	93.291192 
3080.666254  	93.227829 
3082.103132  	93.250200 
3083.540010  	93.283012 
3084.976888  	93.253943 
3086.413766  	93.196919 
3087.850644  	93.146462 
3089.287522  	93.166482 
3090.724400  	93.168334 
3092.161278  	93.120546 
3093.598156  	93.151963 
3095.035034  	93.135138 
3096.471912  	93.053069 
3097.908789  	93.070102 
3099.345667  	93.032694 
3100.782545  	92.955056 
3102.219423  	92.982682 
3103.656301  	92.958062 
3105.093179  	92.927609 
3106.530057  	92.973316 
3107.966935  	92.952432 
3109.403813  	92.922633 
3110.840691  	92.904537 
3112.277569  	92.834607 
3113.714447  	92.818221 
3115.151324  	92.826565 
3116.588202  	92.781266 
3118.025080  	92.741263 
3119.461958  	92.745744 
3120.898836  	92.791027 
3122.335714  	92.774540 
3123.772592  	92.678909 
3125.209470  	92.655115 
3126.646348  	92.667605 
3128.083226  	92.606768 
3129.520104  	92.531001 
3130.956982  	92.525798 
3132.393859  	92.564005 
3133.830737  	92.523467 
3135.267615  	92.458690 
3136.704493  	92.484430 
3138.141371  	92.467717 
3139.578249  	92.396002 
3141.015127  	92.395454 
3142.452005  	92.385527 
3143.888883  	92.337087 
3145.325761  	92.317890 
3146.762639  	92.288576 
3148.199517  	92.232788 
3149.636394  	92.209711 
3151.073272  	92.238506 
3152.510150  	92.230750 
3153.947028  	92.180649 
3155.383906  	92.200450 
3156.820784  	92.202207 
3158.257662  	92.118609 
3159.694540  	92.094889 
3161.131418  	92.113754 
3162.568296  	92.081481 
3164.005174  	92.041907 
3165.442052  	92.043211 
3166.878929  	92.079566 
3168.315807  	92.075572 
3169.752685  	92.025745 
3171.189563  	91.995761 
3172.626441  	91.975847 
3174.063319  	91.974110 
3175.500197  	91.935055 
3176.937075  	91.839112 
3178.373953  	91.830524 
3179.810831  	91.853970 
3181.247709  	91.857576 
3182.684587  	91.942895 
3184.121464  	91.973588 
3185.558342  	91.897255 
3186.995220  	91.805226 
3188.432098  	91.691993 
3189.868976  	91.692944 
3191.305854  	91.773422 
3192.742732  	91.753348 
3194.179610  	91.737467 
3195.616488  	91.734993 
3197.053366  	91.707301 
3198.490244  	91.716788 
3199.927122  	91.671368 
3201.363999  	91.613062 
3202.800877  	91.620135 
3204.237755  	91.615980 
3205.674633  	91.597194 
3207.111511  	91.522970 
3208.548389  	91.479345 
3209.985267  	91.554364 
3211.422145  	91.562035 
3212.859023  	91.564552 
3214.295901  	91.573905 
3215.732779  	91.415895 
3217.169657  	91.375397 
3218.606534  	91.470754 
3220.043412  	91.389028 
3221.480290  	91.336964 
3222.917168  	91.435480 
3224.354046  	91.482521 
3225.790924  	91.418166 
3227.227802  	91.316927 
3228.664680  	91.354427 
3230.101558  	91.437015 
3231.538436  	91.381910 
3232.975314  	91.349751 
3234.412192  	91.351394 
3235.849069  	91.364205 
3237.285947  	91.468731 
3238.722825  	91.484077 
3240.159703  	91.410923 
3241.596581  	91.369006 
3243.033459  	91.319030 
3244.470337  	91.354674 
3245.907215  	91.371003 
3247.344093  	91.255624 
3248.780971  	91.266686 
3250.217849  	91.353354 
3251.654727  	91.302143 
3253.091604  	91.266001 
3254.528482  	91.347474 
3255.965360  	91.364571 
3257.402238  	91.236701 
3258.839116  	91.231853 
3260.275994  	91.412836 
3261.712872  	91.434361 
3263.149750  	91.325423 
3264.586628  	91.321541 
3266.023506  	91.325702 
3267.460384  	91.261584 
3268.897262  	91.190563 
3270.334139  	91.211320 
3271.771017  	91.305727 
3273.207895  	91.325108 
3274.644773  	91.368516 
3276.081651  	91.441551 
3277.518529  	91.367686 
3278.955407  	91.298537 
3280.392285  	91.302990 
3281.829163  	91.259684 
3283.266041  	91.226299 
3284.702919  	91.236571 
3286.139797  	91.285518 
3287.576674  	91.318500 
3289.013552  	91.300660 
3290.450430  	91.315958 
3291.887308  	91.273687 
3293.324186  	91.243051 
3294.761064  	91.378649 
3296.197942  	91.412304 
3297.634820  	91.355542 
3299.071698  	91.386047 
3300.508576  	91.344777 
3301.945454  	91.339535 
3303.382332  	91.388537 
3304.819210  	91.291620 
3306.256087  	91.252959 
3307.692965  	91.301514 
3309.129843  	91.295778 
3310.566721  	91.367649 
3312.003599  	91.454730 
3313.440477  	91.445997 
3314.877355  	91.374204 
3316.314233  	91.286928 
3317.751111  	91.308111 
3319.187989  	91.372673 
3320.624867  	91.398941 
3322.061745  	91.474148 
3323.498622  	91.499397 
3324.935500  	91.425736 
3326.372378  	91.370310 
3327.809256  	91.380983 
3329.246134  	91.424475 
3330.683012  	91.362864 
3332.119890  	91.297132 
3333.556768  	91.397879 
3334.993646  	91.441674 
3336.430524  	91.392657 
3337.867402  	91.402118 
3339.304280  	91.377618 
3340.741157  	91.355320 
3342.178035  	91.391003 
3343.614913  	91.419955 
3345.051791  	91.418620 
3346.488669  	91.352572 
3347.925547  	91.369186 
3349.362425  	91.470444 
3350.799303  	91.406935 
3352.236181  	91.330394 
3353.673059  	91.366917 
3355.109937  	91.325005 
3356.546815  	91.271488 
3357.983692  	91.331301 
3359.420570  	91.425901 
3360.857448  	91.407241 
3362.294326  	91.282883 
3363.731204  	91.288655 
3365.168082  	91.368211 
3366.604960  	91.364937 
3368.041838  	91.395491 
3369.478716  	91.441023 
3370.915594  	91.515028 
3372.352472  	91.610114 
3373.789350  	91.535778 
3375.226227  	91.461925 
3376.663105  	91.477830 
3378.099983  	91.419132 
3379.536861  	91.462145 
3380.973739  	91.569250 
3382.410617  	91.520053 
3383.847495  	91.450815 
3385.284373  	91.415765 
3386.721251  	91.418136 
3388.158129  	91.504754 
3389.595007  	91.560170 
3391.031885  	91.565451 
3392.468762  	91.584664 
3393.905640  	91.650166 
3395.342518  	91.700983 
3396.779396  	91.653042 
3398.216274  	91.644938 
3399.653152  	91.648701 
3401.090030  	91.584092 
3402.526908  	91.682853 
3403.963786  	91.796134 
3405.400664  	91.711999 
3406.837542  	91.689974 
3408.274420  	91.751189 
3409.711297  	91.827174 
3411.148175  	91.947253 
3412.585053  	91.937047 
3414.021931  	91.836256 
3415.458809  	91.821973 
3416.895687  	91.868771 
3418.332565  	91.895975 
3419.769443  	91.871912 
3421.206321  	91.929278 
3422.643199  	91.991855 
3424.080077  	91.914862 
3425.516955  	91.983382 
3426.953832  	92.121256 
3428.390710  	92.058867 
3429.827588  	92.065199 
3431.264466  	92.146069 
3432.701344  	92.124981 
3434.138222  	92.145424 
3435.575100  	92.175486 
3437.011978  	92.173346 
3438.448856  	92.184706 
3439.885734  	92.212538 
3441.322612  	92.327927 
3442.759490  	92.371728 
3444.196367  	92.300963 
3445.633245  	92.352621 
3447.070123  	92.441741 
3448.507001  	92.485238 
3449.943879  	92.492967 
3451.380757  	92.395520 
3452.817635  	92.398456 
3454.254513  	92.540001 
3455.691391  	92.564314 
3457.128269  	92.506340 
3458.565147  	92.503845 
3460.002025  	92.603237 
3461.438902  	92.721228 
3462.875780  	92.722679 
3464.312658  	92.725552 
3465.749536  	92.757858 
3467.186414  	92.720898 
3468.623292  	92.714407 
3470.060170  	92.771808 
3471.497048  	92.866572 
3472.933926  	92.976226 
3474.370804  	93.023734 
3475.807682  	93.049975 
3477.244560  	93.053467 
3478.681437  	93.035054 
3480.118315  	93.072199 
3481.555193  	93.092761 
3482.992071  	93.113981 
3484.428949  	93.211141 
3485.865827  	93.299954 
3487.302705  	93.371329 
3488.739583  	93.382506 
3490.176461  	93.342465 
3491.613339  	93.368878 
3493.050217  	93.402064 
3494.487095  	93.453068 
3495.923972  	93.530830 
3497.360850  	93.525227 
3498.797728  	93.569925 
3500.234606  	93.630703 
3501.671484  	93.526109 
3503.108362  	93.484503 
3504.545240  	93.642351 
3505.982118  	93.796951 
3507.418996  	93.864649 
3508.855874  	93.845791 
3510.292752  	93.797146 
3511.729630  	93.793088 
3513.166507  	93.857930 
3514.603385  	93.955572 
3516.040263  	93.956532 
3517.477141  	93.954007 
3518.914019  	94.047790 
3520.350897  	94.091575 
3521.787775  	94.125704 
3523.224653  	94.172310 
3524.661531  	94.116237 
3526.098409  	94.098244 
3527.535287  	94.184200 
3528.972165  	94.280686 
3530.409043  	94.323636 
3531.845920  	94.346155 
3533.282798  	94.486776 
3534.719676  	94.575990 
3536.156554  	94.456232 
3537.593432  	94.406108 
3539.030310  	94.442591 
3540.467188  	94.429444 
3541.904066  	94.498297 
3543.340944  	94.593893 
3544.777822  	94.662679 
3546.214700  	94.724299 
3547.651578  	94.688424 
3549.088455  	94.644244 
3550.525333  	94.662065 
3551.962211  	94.712440 
3553.399089  	94.831411 
3554.835967  	94.930520 
3556.272845  	94.956708 
3557.709723  	94.986841 
3559.146601  	95.022830 
3560.583479  	95.038999 
3562.020357  	95.043842 
3563.457235  	95.108629 
3564.894113  	95.259764 
3566.330990  	95.289243 
3567.767868  	95.114002 
3569.204746  	95.074101 
3570.641624  	95.247959 
3572.078502  	95.469730 
3573.515380  	95.566270 
3574.952258  	95.524890 
3576.389136  	95.521377 
3577.826014  	95.532869 
3579.262892  	95.535048 
3580.699770  	95.571603 
3582.136648  	95.552706 
3583.573525  	95.504859 
3585.010403  	95.554429 
3586.447281  	95.664449 
3587.884159  	95.677304 
3589.321037  	95.544778 
3590.757915  	95.649485 
3592.194793  	95.908816 
3593.631671  	95.960873 
3595.068549  	95.890020 
3596.505427  	95.940877 
3597.942305  	95.945752 
3599.379183  	95.884114 
3600.816060  	95.839058 
3602.252938  	95.827109 
3603.689816  	95.897160 
3605.126694  	95.994677 
3606.563572  	96.109903 
3608.000450  	96.132414 
3609.437328  	95.895513 
3610.874206  	95.791224 
3612.311084  	95.963922 
3613.747962  	96.133312 
3615.184840  	96.150027 
3616.621718  	96.171536 
3618.058595  	96.292290 
3619.495473  	96.322880 
3620.932351  	96.180890 
3622.369229  	96.211156 
3623.806107  	96.314530 
3625.242985  	96.396040 
3626.679863  	96.571443 
3628.116741  	96.614596 
3629.553619  	96.285872 
3630.990497  	96.228270 
3632.427375  	96.392924 
3633.864253  	96.485422 
3635.301130  	96.583455 
3636.738008  	96.631766 
3638.174886  	96.604825 
3639.611764  	96.580231 
3641.048642  	96.584190 
3642.485520  	96.627556 
3643.922398  	96.682024 
3645.359276  	96.795575 
3646.796154  	96.924430 
3648.233032  	96.931444 
3649.669910  	96.852486 
3651.106788  	96.792103 
3652.543665  	96.891369 
3653.980543  	97.135400 
3655.417421  	97.339529 
3656.854299  	97.336155 
3658.291177  	97.266954 
3659.728055  	97.292235 
3661.164933  	97.334854 
3662.601811  	97.389238 
3664.038689  	97.422042 
3665.475567  	97.414795 
3666.912445  	97.507492 
3668.349323  	97.633745 
3669.786200  	97.624646 
3671.223078  	97.433486 
3672.659956  	97.488583 
3674.096834  	97.677278 
3675.533712  	97.803992 
3676.970590  	97.774933 
3678.407468  	97.848407 
3679.844346  	97.950807 
3681.281224  	97.997575 
3682.718102  	98.022098 
3684.154980  	98.012966 
3685.591858  	98.024889 
3687.028735  	98.158820 
3688.465613  	98.272186 
3689.902491  	98.181126 
3691.339369  	98.104461 
3692.776247  	98.164265 
3694.213125  	98.247768 
3695.650003  	98.262996 
3697.086881  	98.241604 
3698.523759  	98.240812 
3699.960637  	98.233228 
3701.397515  	98.237645 
3702.834393  	98.268762 
3704.271270  	98.236606 
3705.708148  	98.250826 
3707.145026  	98.343501 
3708.581904  	98.365545 
3710.018782  	98.378672 
3711.455660  	98.415807 
3712.892538  	98.329675 
3714.329416  	98.348947 
3715.766294  	98.476870 
3717.203172  	98.472876 
3718.640050  	98.448561 
3720.076928  	98.494788 
3721.513805  	98.486961 
3722.950683  	98.435139 
3724.387561  	98.400355 
3725.824439  	98.354170 
3727.261317  	98.390256 
3728.698195  	98.491210 
3730.135073  	98.491155 
3731.571951  	98.389086 
3733.008829  	98.299495 
3734.445707  	98.290943 
3735.882585  	98.283386 
3737.319463  	98.305524 
3738.756340  	98.403573 
3740.193218  	98.447730 
3741.630096  	98.439065 
3743.066974  	98.500864 
3744.503852  	98.525247 
3745.940730  	98.338177 
3747.377608  	98.425769 
3748.814486  	98.612053 
3750.251364  	98.684781 
3751.688242  	98.535614 
3753.125120  	98.445685 
3754.561998  	98.464880 
3755.998875  	98.522778 
3757.435753  	98.567832 
3758.872631  	98.576549 
3760.309509  	98.544681 
3761.746387  	98.526137 
3763.183265  	98.608744 
3764.620143  	98.661375 
3766.057021  	98.571227 
3767.493899  	98.529685 
3768.930777  	98.618153 
3770.367655  	98.686886 
3771.804533  	98.637013 
3773.241411  	98.553827 
3774.678288  	98.527502 
3776.115166  	98.577655 
3777.552044  	98.605707 
3778.988922  	98.593834 
3780.425800  	98.555581 
3781.862678  	98.522221 
3783.299556  	98.561290 
3784.736434  	98.613584 
3786.173312  	98.613100 
3787.610190  	98.574710 
3789.047068  	98.533863 
3790.483946  	98.494630 
3791.920823  	98.483238 
3793.357701  	98.519567 
3794.794579  	98.599138 
3796.231457  	98.635030 
3797.668335  	98.547942 
3799.105213  	98.561333 
3800.542091  	98.640676 
3801.978969  	98.531805 
3803.415847  	98.355763 
3804.852725  	98.487061 
3806.289603  	98.685253 
3807.726481  	98.648869 
3809.163358  	98.513808 
3810.600236  	98.566708 
3812.037114  	98.616504 
3813.473992  	98.641310 
3814.910870  	98.687104 
3816.347748  	98.561682 
3817.784626  	98.443634 
3819.221504  	98.625251 
3820.658382  	98.736706 
3822.095260  	98.561879 
3823.532138  	98.499013 
3824.969016  	98.574845 
3826.405893  	98.585732 
3827.842771  	98.543112 
3829.279649  	98.555252 
3830.716527  	98.606177 
3832.153405  	98.642274 
3833.590283  	98.623424 
3835.027161  	98.559351 
3836.464039  	98.514268 
3837.900917  	98.594906 
3839.337795  	98.664470 
3840.774673  	98.619065 
3842.211551  	98.625270 
3843.648428  	98.641566 
3845.085306  	98.584828 
3846.522184  	98.548497 
3847.959062  	98.595911 
3849.395940  	98.705480 
3850.832818  	98.715649 
3852.269696  	98.677529 
3853.706574  	98.544962 
3855.143452  	98.254501 
3856.580330  	98.356758 
3858.017208  	98.530263 
3859.454086  	98.670840 
3860.890963  	98.796823 
3862.327841  	98.735042 
3863.764719  	98.586690 
3865.201597  	98.566925 
3866.638475  	98.489533 
3868.075353  	98.537680 
3869.512231  	98.689559 
3870.949109  	98.551275 
3872.385987  	98.506571 
3873.822865  	98.621788 
3875.259743  	98.490219 
3876.696621  	98.458031 
3878.133498  	98.671597 
3879.570376  	98.804483 
3881.007254  	98.629942 
3882.444132  	98.424902 
3883.881010  	98.544457 
3885.317888  	98.627721 
3886.754766  	98.386942 
3888.191644  	98.435089 
3889.628522  	98.695894 
3891.065400  	98.795330 
3892.502278  	98.626220 
3893.939156  	98.382282 
3895.376033  	98.362708 
3896.812911  	98.581859 
3898.249789  	98.733831 
3899.686667  	98.702329 
3901.123545  	98.559664 
3902.560423  	98.472175 
3903.997301  	98.584746 
3905.434179  	98.554428 
3906.871057  	98.364203 
3908.307935  	98.442927 
3909.744813  	98.652881 
3911.181691  	98.709305 
3912.618568  	98.602296 
3914.055446  	98.514650 
3915.492324  	98.567993 
3916.929202  	98.639126 
3918.366080  	98.592740 
3919.802958  	98.529613 
3921.239836  	98.520726 
3922.676714  	98.548202 
3924.113592  	98.540291 
3925.550470  	98.467045 
3926.987348  	98.467210 
3928.424226  	98.541164 
3929.861103  	98.584433 
3931.297981  	98.591736 
3932.734859  	98.547500 
3934.171737  	98.492758 
3935.608615  	98.509463 
3937.045493  	98.533801 
3938.482371  	98.544598 
3939.919249  	98.554357 
3941.356127  	98.580523 
3942.793005  	98.616063 
3944.229883  	98.602637 
3945.666761  	98.565570 
3947.103638  	98.572798 
3948.540516  	98.577201 
3949.977394  	98.583175 
3951.414272  	98.609149 
3952.851150  	98.600441 
3954.288028  	98.586327 
3955.724906  	98.588583 
3957.161784  	98.567002 
3958.598662  	98.530435 
3960.035540  	98.554769 
3961.472418  	98.613402 
3962.909296  	98.605105 
3964.346173  	98.559700 
3965.783051  	98.574960 
3967.219929  	98.602318 
3968.656807  	98.607302 
3970.093685  	98.590616 
3971.530563  	98.533245 
3972.967441  	98.534549 
3974.404319  	98.578824 
3975.841197  	98.554090 
3977.278075  	98.547628 
3978.714953  	98.573587 
3980.151831  	98.564586 
3981.588708  	98.564031 
3983.025586  	98.550077 
3984.462464  	98.517214 
3985.899342  	98.498045 
3987.336220  	98.477430 
3988.773098  	98.516806 
3990.209976  	98.575915 
3991.646854  	98.544907 
3993.083732  	98.538451 
3994.520610  	98.625115 
3995.957488  	98.676732 
3997.394366  	98.640013 
3998.831244  	98.575839 
4000.268121  	98.509211 