##TITLE=No Description
##DATA TYPE=INFRARED SPECTRUM
##XUNITS=1/CM
##YUNITS=%T
399.452061  	35.627707 
400.888939  	33.486564 
402.325817  	32.390885 
403.762695  	31.479188 
405.199573  	30.070838 
406.636451  	31.070360 
408.073328  	29.968195 
409.510206  	28.034401 
410.947084  	27.841242 
412.383962  	27.419062 
413.820840  	28.053332 
415.257718  	26.943231 
416.694596  	24.749532 
418.131474  	25.378189 
419.568352  	23.907748 
421.005230  	23.233393 
422.442108  	24.640450 
423.878986  	23.604728 
425.315863  	22.614088 
426.752741  	22.275861 
428.189619  	21.631580 
429.626497  	21.662169 
431.063375  	20.279970 
432.500253  	19.585760 
433.937131  	20.823034 
435.374009  	20.196442 
436.810887  	19.835707 
438.247765  	19.998697 
439.684643  	19.136508 
441.121521  	19.547017 
442.558398  	19.435142 
443.995276  	18.669072 
445.432154  	19.406720 
446.869032  	19.187585 
448.305910  	19.129768 
449.742788  	19.692231 
451.179666  	19.559581 
452.616544  	20.222164 
454.053422  	20.661897 
455.490300  	20.880098 
456.927178  	22.233251 
458.364056  	22.590611 
459.800933  	22.574054 
461.237811  	23.281219 
462.674689  	24.085873 
464.111567  	25.643647 
465.548445  	26.457018 
466.985323  	27.123318 
468.422201  	29.253853 
469.859079  	30.431125 
471.295957  	31.587729 
472.732835  	33.983664 
474.169713  	35.339642 
475.606591  	36.927992 
477.043469  	39.318764 
478.480346  	41.476743 
479.917224  	43.906771 
481.354102  	46.044418 
482.790980  	47.799128 
484.227858  	49.907200 
485.664736  	51.888288 
487.101614  	54.064161 
488.538492  	56.415975 
489.975370  	58.311469 
491.412248  	59.870070 
492.849126  	61.126481 
494.286004  	62.517626 
495.722881  	64.087960 
497.159759  	64.935166 
498.596637  	65.526127 
500.033515  	66.439593 
501.470393  	67.351947 
502.907271  	68.211726 
504.344149  	68.778370 
505.781027  	69.276006 
507.217905  	69.818184 
508.654783  	69.882196 
510.091661  	69.988728 
511.528539  	70.505574 
512.965416  	70.953361 
514.402294  	71.223613 
515.839172  	71.179195 
517.276050  	71.101347 
518.712928  	71.380229 
520.149806  	71.462353 
521.586684  	71.451033 
523.023562  	71.558348 
524.460440  	71.522858 
525.897318  	71.519259 
527.334196  	71.419408 
528.771074  	71.293354 
530.207951  	71.483864 
531.644829  	71.505114 
533.081707  	71.316710 
534.518585  	71.259678 
535.955463  	71.129250 
537.392341  	71.070277 
538.829219  	71.105292 
540.266097  	71.071299 
541.702975  	71.159061 
543.139853  	71.161279 
544.576731  	71.037365 
546.013609  	71.037977 
547.450486  	71.065546 
548.887364  	71.131949 
550.324242  	71.172075 
551.761120  	71.214383 
553.197998  	71.468944 
554.634876  	71.578516 
556.071754  	71.540348 
557.508632  	71.695522 
558.945510  	71.813000 
560.382388  	71.937167 
561.819266  	72.188041 
563.256144  	72.320383 
564.693021  	72.339459 
566.129899  	72.298847 
567.566777  	72.427384 
569.003655  	72.853118 
570.440533  	73.148426 
571.877411  	73.344228 
573.314289  	73.565667 
574.751167  	73.620038 
576.188045  	73.813245 
577.624923  	74.174980 
579.061801  	74.341416 
580.498679  	74.454872 
581.935556  	74.570120 
583.372434  	74.717041 
584.809312  	75.054926 
586.246190  	75.339360 
587.683068  	75.523572 
589.119946  	75.830403 
590.556824  	76.107304 
591.993702  	76.219569 
593.430580  	76.363698 
594.867458  	76.666274 
596.304336  	76.930230 
597.741214  	77.050755 
599.178091  	77.259400 
600.614969  	77.488812 
602.051847  	77.583539 
603.488725  	77.776182 
604.925603  	77.944173 
606.362481  	78.095483 
607.799359  	78.262200 
609.236237  	78.487145 
610.673115  	78.662869 
612.109993  	78.812878 
613.546871  	78.931562 
614.983749  	78.991497 
616.420626  	79.040201 
617.857504  	79.141371 
619.294382  	79.291633 
620.731260  	79.428394 
622.168138  	79.567093 
623.605016  	79.628645 
625.041894  	79.672776 
626.478772  	79.763318 
627.915650  	79.822839 
629.352528  	79.828992 
630.789406  	79.889233 
632.226284  	79.950382 
633.663161  	79.982359 
635.100039  	80.036393 
636.536917  	80.061989 
637.973795  	80.125948 
639.410673  	80.188012 
640.847551  	80.238970 
642.284429  	80.307692 
643.721307  	80.351505 
645.158185  	80.434757 
646.595063  	80.480671 
648.031941  	80.498726 
649.468819  	80.587414 
650.905696  	80.676108 
652.342574  	80.689517 
653.779452  	80.728926 
655.216330  	80.810857 
656.653208  	80.845440 
658.090086  	80.846093 
659.526964  	80.874429 
660.963842  	80.979513 
662.400720  	81.058634 
663.837598  	81.074847 
665.274476  	81.118050 
666.711354  	81.146520 
668.148231  	81.139063 
669.585109  	81.204932 
671.021987  	81.151570 
672.458865  	81.103766 
673.895743  	81.165634 
675.332621  	81.191019 
676.769499  	81.226021 
678.206377  	81.272958 
679.643255  	81.269962 
681.080133  	81.293984 
682.517011  	81.347726 
683.953889  	81.348748 
685.390766  	81.353287 
686.827644  	81.322795 
688.264522  	81.310505 
689.701400  	81.360590 
691.138278  	81.368651 
692.575156  	81.327613 
694.012034  	81.305485 
695.448912  	81.311580 
696.885790  	81.332654 
698.322668  	81.345219 
699.759546  	81.352745 
701.196424  	81.348967 
702.633301  	81.307046 
704.070179  	81.308156 
705.507057  	81.305431 
706.943935  	81.293131 
708.380813  	81.320575 
709.817691  	81.281928 
711.254569  	81.226840 
712.691447  	81.259200 
714.128325  	81.261833 
715.565203  	81.226511 
717.002081  	81.197038 
718.438959  	81.179359 
719.875837  	81.209493 
721.312714  	81.207190 
722.749592  	81.157600 
724.186470  	81.125305 
725.623348  	81.119029 
727.060226  	81.081584 
728.497104  	81.000369 
729.933982  	80.941579 
731.370860  	80.993456 
732.807738  	81.001668 
734.244616  	80.904927 
735.681494  	80.863094 
737.118372  	80.843386 
738.555249  	80.839407 
739.992127  	80.848566 
741.429005  	80.745390 
742.865883  	80.680670 
744.302761  	80.706486 
745.739639  	80.640057 
747.176517  	80.582254 
748.613395  	80.569209 
750.050273  	80.504981 
751.487151  	80.493551 
752.924029  	80.514810 
754.360907  	80.481511 
755.797784  	80.431323 
757.234662  	80.350289 
758.671540  	80.272073 
760.108418  	80.229612 
761.545296  	80.157679 
762.982174  	80.043932 
764.419052  	79.903927 
765.855930  	79.750000 
767.292808  	79.520125 
768.729686  	79.087561 
770.166564  	78.523974 
771.603442  	77.961798 
773.040319  	77.346990 
774.477197  	76.600477 
775.914075  	75.725720 
777.350953  	74.831694 
778.787831  	73.993186 
780.224709  	73.178441 
781.661587  	72.453997 
783.098465  	71.847562 
784.535343  	71.339321 
785.972221  	70.925220 
787.409099  	70.479553 
788.845977  	70.066219 
790.282854  	69.802151 
791.719732  	69.607153 
793.156610  	69.545415 
794.593488  	69.578150 
796.030366  	69.581731 
797.467244  	69.663927 
798.904122  	69.803354 
800.341000  	69.959699 
801.777878  	70.187520 
803.214756  	70.433117 
804.651634  	70.743744 
806.088512  	71.135119 
807.525389  	71.527662 
808.962267  	71.942834 
810.399145  	72.397064 
811.836023  	72.903064 
813.272901  	73.407050 
814.709779  	73.904237 
816.146657  	74.505833 
817.583535  	75.099174 
819.020413  	75.643205 
820.457291  	76.240880 
821.894169  	76.827223 
823.331047  	77.486395 
824.767924  	78.211163 
826.204802  	78.815459 
827.641680  	79.432577 
829.078558  	80.097661 
830.515436  	80.698789 
831.952314  	81.333552 
833.389192  	81.991617 
834.826070  	82.622295 
836.262948  	83.225673 
837.699826  	83.788575 
839.136704  	84.400232 
840.573582  	84.959485 
842.010459  	85.344449 
843.447337  	85.726374 
844.884215  	86.108878 
846.321093  	86.367922 
847.757971  	86.594587 
849.194849  	86.843844 
850.631727  	87.056607 
852.068605  	87.227541 
853.505483  	87.360763 
854.942361  	87.415898 
856.379239  	87.432305 
857.816117  	87.499851 
859.252994  	87.552649 
860.689872  	87.553609 
862.126750  	87.574717 
863.563628  	87.550486 
865.000506  	87.505165 
866.437384  	87.521511 
867.874262  	87.455439 
869.311140  	87.343855 
870.748018  	87.332828 
872.184896  	87.282148 
873.621774  	87.148334 
875.058652  	87.037163 
876.495529  	86.929875 
877.932407  	86.785406 
879.369285  	86.592601 
880.806163  	86.417587 
882.243041  	86.274847 
883.679919  	86.042610 
885.116797  	85.754793 
886.553675  	85.494027 
887.990553  	85.229237 
889.427431  	84.940147 
890.864309  	84.572351 
892.301187  	84.182830 
893.738064  	83.845577 
895.174942  	83.446291 
896.611820  	83.024560 
898.048698  	82.624578 
899.485576  	82.152654 
900.922454  	81.721438 
902.359332  	81.330472 
903.796210  	80.852773 
905.233088  	80.361276 
906.669966  	79.874097 
908.106844  	79.422053 
909.543722  	78.988188 
910.980599  	78.450174 
912.417477  	77.940505 
913.854355  	77.444677 
915.291233  	76.850831 
916.728111  	76.341778 
918.164989  	75.855072 
919.601867  	75.320555 
921.038745  	74.837370 
922.475623  	74.267604 
923.912501  	73.720196 
925.349379  	73.288913 
926.786257  	72.786294 
928.223134  	72.335470 
929.660012  	71.924063 
931.096890  	71.465800 
932.533768  	71.124472 
933.970646  	70.779490 
935.407524  	70.431369 
936.844402  	70.182803 
938.281280  	69.896658 
939.718158  	69.704899 
941.155036  	69.579390 
942.591914  	69.366419 
944.028792  	69.244843 
945.465670  	69.150676 
946.902547  	69.066968 
948.339425  	69.089043 
949.776303  	69.055004 
951.213181  	69.072116 
952.650059  	69.167132 
954.086937  	69.212902 
955.523815  	69.391126 
956.960693  	69.623484 
958.397571  	69.797317 
959.834449  	70.018200 
961.271327  	70.252215 
962.708205  	70.595397 
964.145082  	70.993527 
965.581960  	71.305877 
967.018838  	71.693251 
968.455716  	72.112668 
969.892594  	72.562344 
971.329472  	73.128677 
972.766350  	73.623328 
974.203228  	74.118771 
975.640106  	74.701797 
977.076984  	75.264308 
978.513862  	75.867002 
979.950740  	76.456496 
981.387617  	77.041899 
982.824495  	77.656363 
984.261373  	78.141351 
985.698251  	78.589197 
987.135129  	78.992997 
988.572007  	79.230334 
990.008885  	79.419964 
991.445763  	79.460016 
992.882641  	79.324953 
994.319519  	79.117335 
995.756397  	78.673474 
997.193275  	78.087207 
998.630152  	77.393667 
1000.067030  	76.443677 
1001.503908  	75.466877 
1002.940786  	74.383127 
1004.377664  	73.019955 
1005.814542  	71.584865 
1007.251420  	69.953098 
1008.688298  	68.172674 
1010.125176  	66.373731 
1011.562054  	64.288504 
1012.998932  	62.107519 
1014.435810  	59.870515 
1015.872687  	57.402003 
1017.309565  	54.969784 
1018.746443  	52.373655 
1020.183321  	49.655689 
1021.620199  	47.103227 
1023.057077  	44.345454 
1024.493955  	41.688386 
1025.930833  	39.246093 
1027.367711  	36.617643 
1028.804589  	34.292424 
1030.241467  	32.111454 
1031.678345  	29.887554 
1033.115222  	28.060798 
1034.552100  	26.197047 
1035.988978  	24.521659 
1037.425856  	23.253177 
1038.862734  	21.829208 
1040.299612  	20.727331 
1041.736490  	19.800251 
1043.173368  	18.746708 
1044.610246  	18.130690 
1046.047124  	17.448788 
1047.484002  	16.808181 
1048.920880  	16.565765 
1050.357757  	16.091903 
1051.794635  	15.837204 
1053.231513  	15.743653 
1054.668391  	15.433801 
1056.105269  	15.513070 
1057.542147  	15.483653 
1058.979025  	15.375049 
1060.415903  	15.631809 
1061.852781  	15.580397 
1063.289659  	15.675353 
1064.726537  	15.994471 
1066.163415  	16.030251 
1067.600292  	16.382114 
1069.037170  	16.667344 
1070.474048  	16.796421 
1071.910926  	17.268552 
1073.347804  	17.504582 
1074.784682  	17.842772 
1076.221560  	18.357085 
1077.658438  	18.550803 
1079.095316  	19.050551 
1080.532194  	19.543634 
1081.969072  	19.855424 
1083.405950  	20.507216 
1084.842827  	20.971997 
1086.279705  	21.498976 
1087.716583  	22.234420 
1089.153461  	22.710455 
1090.590339  	23.473730 
1092.027217  	24.270286 
1093.464095  	24.918360 
1094.900973  	25.924217 
1096.337851  	26.784991 
1097.774729  	27.733667 
1099.211607  	29.029568 
1100.648485  	30.157435 
1102.085362  	31.557881 
1103.522240  	33.129145 
1104.959118  	34.618630 
1106.395996  	36.455307 
1107.832874  	38.258593 
1109.269752  	40.051478 
1110.706630  	42.014982 
1112.143508  	43.723353 
1113.580386  	45.418575 
1115.017264  	47.044459 
1116.454142  	48.375063 
1117.891020  	49.713832 
1119.327897  	50.835949 
1120.764775  	51.765396 
1122.201653  	52.706628 
1123.638531  	53.390304 
1125.075409  	54.013756 
1126.512287  	54.623377 
1127.949165  	55.079771 
1129.386043  	55.576689 
1130.822921  	55.935771 
1132.259799  	56.264741 
1133.696677  	56.727212 
1135.133555  	56.997149 
1136.570432  	57.274876 
1138.007310  	57.600672 
1139.444188  	57.788832 
1140.881066  	58.107189 
1142.317944  	58.372964 
1143.754822  	58.539166 
1145.191700  	58.847797 
1146.628578  	59.058422 
1148.065456  	59.272924 
1149.502334  	59.544091 
1150.939212  	59.676313 
1152.376090  	59.911671 
1153.812967  	60.157572 
1155.249845  	60.338385 
1156.686723  	60.651330 
1158.123601  	60.872740 
1159.560479  	61.064661 
1160.997357  	61.339741 
1162.434235  	61.539759 
1163.871113  	61.823963 
1165.307991  	62.106760 
1166.744869  	62.311960 
1168.181747  	62.610239 
1169.618625  	62.846905 
1171.055502  	63.111285 
1172.492380  	63.468023 
1173.929258  	63.727161 
1175.366136  	64.059382 
1176.803014  	64.397273 
1178.239892  	64.646529 
1179.676770  	64.982605 
1181.113648  	65.259133 
1182.550526  	65.557906 
1183.987404  	65.954053 
1185.424282  	66.218237 
1186.861160  	66.538914 
1188.298038  	66.919780 
1189.734915  	67.199486 
1191.171793  	67.555329 
1192.608671  	67.902941 
1194.045549  	68.225098 
1195.482427  	68.601906 
1196.919305  	68.892900 
1198.356183  	69.228278 
1199.793061  	69.601238 
1201.229939  	69.886238 
1202.666817  	70.238510 
1204.103695  	70.583948 
1205.540573  	70.913944 
1206.977450  	71.313917 
1208.414328  	71.645201 
1209.851206  	72.005388 
1211.288084  	72.400461 
1212.724962  	72.734749 
1214.161840  	73.155613 
1215.598718  	73.564525 
1217.035596  	73.929581 
1218.472474  	74.359431 
1219.909352  	74.734045 
1221.346230  	75.147261 
1222.783108  	75.631379 
1224.219985  	76.065082 
1225.656863  	76.566773 
1227.093741  	77.067757 
1228.530619  	77.523841 
1229.967497  	78.058891 
1231.404375  	78.574924 
1232.841253  	79.107308 
1234.278131  	79.697191 
1235.715009  	80.259870 
1237.151887  	80.901369 
1238.588765  	81.568463 
1240.025643  	82.182199 
1241.462520  	82.849052 
1242.899398  	83.529316 
1244.336276  	84.240831 
1245.773154  	85.008844 
1247.210032  	85.729182 
1248.646910  	86.447643 
1250.083788  	87.184840 
1251.520666  	87.899681 
1252.957544  	88.615585 
1254.394422  	89.291251 
1255.831300  	89.934715 
1257.268178  	90.560472 
1258.705055  	91.108772 
1260.141933  	91.614341 
1261.578811  	92.076962 
1263.015689  	92.449541 
1264.452567  	92.800924 
1265.889445  	93.137571 
1267.326323  	93.415903 
1268.763201  	93.674312 
1270.200079  	93.909131 
1271.636957  	94.120927 
1273.073835  	94.336264 
1274.510713  	94.511622 
1275.947590  	94.659869 
1277.384468  	94.824398 
1278.821346  	94.971234 
1280.258224  	95.098643 
1281.695102  	95.226319 
1283.131980  	95.339736 
1284.568858  	95.435650 
1286.005736  	95.522150 
1287.442614  	95.617374 
1288.879492  	95.706028 
1290.316370  	95.771807 
1291.753248  	95.860010 
1293.190125  	95.948678 
1294.627003  	96.003473 
1296.063881  	96.078036 
1297.500759  	96.154484 
1298.937637  	96.211818 
1300.374515  	96.287304 
1301.811393  	96.303664 
1303.248271  	96.331189 
1304.685149  	96.377741 
1306.122027  	96.432657 
1307.558905  	96.458304 
1308.995783  	96.480830 
1310.432660  	96.510514 
1311.869538  	96.547700 
1313.306416  	96.577369 
1314.743294  	96.613358 
1316.180172  	96.651311 
1317.617050  	96.672764 
1319.053928  	96.698989 
1320.490806  	96.739903 
1321.927684  	96.758918 
1323.364562  	96.790369 
1324.801440  	96.832849 
1326.238318  	96.870040 
1327.675195  	96.898310 
1329.112073  	96.904649 
1330.548951  	96.908087 
1331.985829  	96.922762 
1333.422707  	96.943025 
1334.859585  	96.960966 
1336.296463  	96.975693 
1337.733341  	96.962192 
1339.170219  	96.961380 
1340.607097  	96.994549 
1342.043975  	97.035340 
1343.480853  	97.064927 
1344.917730  	97.068497 
1346.354608  	97.087505 
1347.791486  	97.115657 
1349.228364  	97.120371 
1350.665242  	97.116458 
1352.102120  	97.124827 
1353.538998  	97.132599 
1354.975876  	97.177768 
1356.412754  	97.222376 
1357.849632  	97.221396 
1359.286510  	97.215113 
1360.723388  	97.211455 
1362.160265  	97.185852 
1363.597143  	97.175594 
1365.034021  	97.219617 
1366.470899  	97.237907 
1367.907777  	97.255084 
1369.344655  	97.307066 
1370.781533  	97.345789 
1372.218411  	97.307567 
1373.655289  	97.268388 
1375.092167  	97.289217 
1376.529045  	97.315248 
1377.965923  	97.298684 
1379.402800  	97.304042 
1380.839678  	97.340924 
1382.276556  	97.373845 
1383.713434  	97.354282 
1385.150312  	97.336974 
1386.587190  	97.328133 
1388.024068  	97.344264 
1389.460946  	97.393242 
1390.897824  	97.421605 
1392.334702  	97.423516 
1393.771580  	97.419105 
1395.208458  	97.406950 
1396.645335  	97.388753 
1398.082213  	97.370955 
1399.519091  	97.350480 
1400.955969  	97.387489 
1402.392847  	97.393999 
1403.829725  	97.388679 
1405.266603  	97.404682 
1406.703481  	97.419472 
1408.140359  	97.422356 
1409.577237  	97.419715 
1411.014115  	97.415343 
1412.450993  	97.410199 
1413.887871  	97.442515 
1415.324748  	97.455853 
1416.761626  	97.417549 
1418.198504  	97.387776 
1419.635382  	97.423932 
1421.072260  	97.402699 
1422.509138  	97.321775 
1423.946016  	97.353470 
1425.382894  	97.445155 
1426.819772  	97.462894 
1428.256650  	97.475609 
1429.693528  	97.490052 
1431.130406  	97.512514 
1432.567283  	97.521055 
1434.004161  	97.480425 
1435.441039  	97.494449 
1436.877917  	97.539897 
1438.314795  	97.488545 
1439.751673  	97.415849 
1441.188551  	97.432980 
1442.625429  	97.500173 
1444.062307  	97.568288 
1445.499185  	97.576864 
1446.936063  	97.497825 
1448.372941  	97.380272 
1449.809818  	97.365006 
1451.246696  	97.476046 
1452.683574  	97.569660 
1454.120452  	97.511962 
1455.557330  	97.451741 
1456.994208  	97.427366 
1458.431086  	97.498753 
1459.867964  	97.503835 
1461.304842  	97.502863 
1462.741720  	97.488909 
1464.178598  	97.479129 
1465.615476  	97.567266 
1467.052353  	97.659131 
1468.489231  	97.641838 
1469.926109  	97.592258 
1471.362987  	97.615672 
1472.799865  	97.658814 
1474.236743  	97.603724 
1475.673621  	97.525272 
1477.110499  	97.557563 
1478.547377  	97.595974 
1479.984255  	97.575419 
1481.421133  	97.582684 
1482.858011  	97.627563 
1484.294888  	97.637351 
1485.731766  	97.621378 
1487.168644  	97.603661 
1488.605522  	97.562460 
1490.042400  	97.515002 
1491.479278  	97.557785 
1492.916156  	97.613269 
1494.353034  	97.640991 
1495.789912  	97.644567 
1497.226790  	97.593096 
1498.663668  	97.556220 
1500.100546  	97.563730 
1501.537423  	97.575622 
1502.974301  	97.591903 
1504.411179  	97.663191 
1505.848057  	97.714760 
1507.284935  	97.507573 
1508.721813  	97.448903 
1510.158691  	97.465952 
1511.595569  	97.518302 
1513.032447  	97.569335 
1514.469325  	97.587109 
1515.906203  	97.597084 
1517.343081  	97.579164 
1518.779958  	97.563653 
1520.216836  	97.592794 
1521.653714  	97.602054 
1523.090592  	97.530909 
1524.527470  	97.470098 
1525.964348  	97.480942 
1527.401226  	97.539427 
1528.838104  	97.570842 
1530.274982  	97.577084 
1531.711860  	97.543242 
1533.148738  	97.489304 
1534.585616  	97.526137 
1536.022493  	97.585573 
1537.459371  	97.638033 
1538.896249  	97.640979 
1540.333127  	97.623872 
1541.770005  	97.686018 
1543.206883  	97.533674 
1544.643761  	97.393528 
1546.080639  	97.520212 
1547.517517  	97.593386 
1548.954395  	97.570545 
1550.391273  	97.524852 
1551.828151  	97.533186 
1553.265028  	97.577611 
1554.701906  	97.605897 
1556.138784  	97.594926 
1557.575662  	97.620834 
1559.012540  	97.524070 
1560.449418  	97.472380 
1561.886296  	97.403440 
1563.323174  	97.405962 
1564.760052  	97.460341 
1566.196930  	97.455060 
1567.633808  	97.444750 
1569.070686  	97.468617 
1570.507563  	97.482732 
1571.944441  	97.466686 
1573.381319  	97.444571 
1574.818197  	97.515502 
1576.255075  	97.563266 
1577.691953  	97.430499 
1579.128831  	97.317578 
1580.565709  	97.260917 
1582.002587  	97.224594 
1583.439465  	97.294692 
1584.876343  	97.296614 
1586.313221  	97.233578 
1587.750098  	97.146524 
1589.186976  	97.092309 
1590.623854  	97.065078 
1592.060732  	97.024020 
1593.497610  	96.959682 
1594.934488  	96.906304 
1596.371366  	96.846825 
1597.808244  	96.759407 
1599.245122  	96.676503 
1600.682000  	96.587437 
1602.118878  	96.506413 
1603.555756  	96.509185 
1604.992633  	96.465304 
1606.429511  	96.291412 
1607.866389  	96.093934 
1609.303267  	95.985133 
1610.740145  	96.008871 
1612.177023  	95.988456 
1613.613901  	95.819094 
1615.050779  	95.675273 
1616.487657  	95.610731 
1617.924535  	95.563785 
1619.361413  	95.419239 
1620.798291  	95.277889 
1622.235168  	95.263563 
1623.672046  	95.364358 
1625.108924  	95.341360 
1626.545802  	95.175950 
1627.982680  	95.052172 
1629.419558  	95.118039 
1630.856436  	95.218451 
1632.293314  	95.217405 
1633.730192  	95.209125 
1635.167070  	95.236059 
1636.603948  	95.091497 
1638.040826  	94.987392 
1639.477703  	95.072763 
1640.914581  	95.268054 
1642.351459  	95.344526 
1643.788337  	95.335650 
1645.225215  	95.339681 
1646.662093  	95.368137 
1648.098971  	95.508103 
1649.535849  	95.573646 
1650.972727  	95.622138 
1652.409605  	95.707236 
1653.846483  	95.765849 
1655.283361  	95.871534 
1656.720239  	95.827019 
1658.157116  	95.857556 
1659.593994  	95.903344 
1661.030872  	95.988037 
1662.467750  	96.145469 
1663.904628  	96.239557 
1665.341506  	96.195753 
1666.778384  	96.206110 
1668.215262  	96.325748 
1669.652140  	96.493792 
1671.089018  	96.576414 
1672.525896  	96.528041 
1673.962774  	96.455976 
1675.399651  	96.450340 
1676.836529  	96.652102 
1678.273407  	96.793835 
1679.710285  	96.835856 
1681.147163  	96.805895 
1682.584041  	96.872399 
1684.020919  	97.032896 
1685.457797  	97.112544 
1686.894675  	97.023336 
1688.331553  	96.997423 
1689.768431  	97.089173 
1691.205309  	97.245463 
1692.642186  	97.334271 
1694.079064  	97.400241 
1695.515942  	97.504902 
1696.952820  	97.442251 
1698.389698  	97.366894 
1699.826576  	97.522106 
1701.263454  	97.650058 
1702.700332  	97.490369 
1704.137210  	97.489015 
1705.574088  	97.622203 
1707.010966  	97.652953 
1708.447844  	97.648599 
1709.884721  	97.677318 
1711.321599  	97.712923 
1712.758477  	97.772993 
1714.195355  	97.818121 
1715.632233  	97.854146 
1717.069111  	97.846986 
1718.505989  	97.777775 
1719.942867  	97.832327 
1721.379745  	97.861271 
1722.816623  	97.848751 
1724.253501  	97.876239 
1725.690379  	97.930614 
1727.127256  	97.977091 
1728.564134  	98.025764 
1730.001012  	98.038403 
1731.437890  	98.006516 
1732.874768  	97.998612 
1734.311646  	98.007454 
1735.748524  	98.048676 
1737.185402  	97.996763 
1738.622280  	97.984154 
1740.059158  	98.027411 
1741.496036  	98.055510 
1742.932914  	98.076240 
1744.369791  	98.064428 
1745.806669  	98.040866 
1747.243547  	98.040139 
1748.680425  	98.080684 
1750.117303  	98.152742 
1751.554181  	98.193992 
1752.991059  	98.143315 
1754.427937  	98.099042 
1755.864815  	98.100523 
1757.301693  	98.106496 
1758.738571  	98.118512 
1760.175449  	98.114574 
1761.612326  	98.092430 
1763.049204  	98.096428 
1764.486082  	98.112932 
1765.922960  	98.118606 
1767.359838  	98.148929 
1768.796716  	98.170611 
1770.233594  	98.182727 
1771.670472  	98.201869 
1773.107350  	98.195869 
1774.544228  	98.129510 
1775.981106  	98.088080 
1777.417984  	98.141481 
1778.854861  	98.173595 
1780.291739  	98.159847 
1781.728617  	98.180879 
1783.165495  	98.167239 
1784.602373  	98.161535 
1786.039251  	98.236237 
1787.476129  	98.278928 
1788.913007  	98.266213 
1790.349885  	98.202822 
1791.786763  	98.048856 
1793.223641  	98.059426 
1794.660519  	98.151017 
1796.097396  	98.087852 
1797.534274  	98.077888 
1798.971152  	98.144087 
1800.408030  	98.106754 
1801.844908  	98.061629 
1803.281786  	98.122090 
1804.718664  	98.197449 
1806.155542  	98.244316 
1807.592420  	98.271000 
1809.029298  	98.263574 
1810.466176  	98.173452 
1811.903054  	98.132924 
1813.339931  	98.185484 
1814.776809  	98.185879 
1816.213687  	98.189854 
1817.650565  	98.214019 
1819.087443  	98.191323 
1820.524321  	98.168917 
1821.961199  	98.175326 
1823.398077  	98.189058 
1824.834955  	98.225172 
1826.271833  	98.243806 
1827.708711  	98.176024 
1829.145589  	98.086744 
1830.582466  	98.080378 
1832.019344  	98.161832 
1833.456222  	98.181250 
1834.893100  	98.123148 
1836.329978  	98.125955 
1837.766856  	98.157163 
1839.203734  	98.155997 
1840.640612  	98.132703 
1842.077490  	98.108969 
1843.514368  	98.105906 
1844.951246  	98.108458 
1846.388124  	98.077481 
1847.825001  	98.043149 
1849.261879  	98.009943 
1850.698757  	97.955427 
1852.135635  	97.925193 
1853.572513  	97.965290 
1855.009391  	98.020932 
1856.446269  	98.011327 
1857.883147  	97.976298 
1859.320025  	97.968190 
1860.756903  	97.956468 
1862.193781  	97.934238 
1863.630659  	97.952404 
1865.067536  	97.935325 
1866.504414  	97.924354 
1867.941292  	97.933393 
1869.378170  	97.906297 
1870.815048  	97.920596 
1872.251926  	97.939740 
1873.688804  	97.920044 
1875.125682  	97.927731 
1876.562560  	97.997886 
1877.999438  	98.061775 
1879.436316  	98.033595 
1880.873194  	98.015485 
1882.310072  	98.126023 
1883.746949  	98.117701 
1885.183827  	97.993813 
1886.620705  	98.033559 
1888.057583  	98.094495 
1889.494461  	98.095171 
1890.931339  	98.143693 
1892.368217  	98.133592 
1893.805095  	98.161886 
1895.241973  	98.255816 
1896.678851  	98.322553 
1898.115729  	98.366743 
1899.552607  	98.387823 
1900.989484  	98.364088 
1902.426362  	98.321708 
1903.863240  	98.292328 
1905.300118  	98.267178 
1906.736996  	98.227375 
1908.173874  	98.214401 
1909.610752  	98.248857 
1911.047630  	98.232274 
1912.484508  	98.251656 
1913.921386  	98.365228 
1915.358264  	98.416647 
1916.795142  	98.409689 
1918.232019  	98.320839 
1919.668897  	98.254315 
1921.105775  	98.359463 
1922.542653  	98.423292 
1923.979531  	98.383405 
1925.416409  	98.398204 
1926.853287  	98.427088 
1928.290165  	98.343077 
1929.727043  	98.345342 
1931.163921  	98.489193 
1932.600799  	98.552185 
1934.037677  	98.361585 
1935.474554  	98.252610 
1936.911432  	98.345891 
1938.348310  	98.337063 
1939.785188  	98.395983 
1941.222066  	98.495090 
1942.658944  	98.275580 
1944.095822  	98.109197 
1945.532700  	98.219579 
1946.969578  	98.332589 
1948.406456  	98.461747 
1949.843334  	98.598833 
1951.280212  	98.712926 
1952.717089  	98.530831 
1954.153967  	98.192249 
1955.590845  	98.347642 
1957.027723  	98.680838 
1958.464601  	98.566045 
1959.901479  	98.303615 
1961.338357  	98.181061 
1962.775235  	98.409725 
1964.212113  	98.937546 
1965.648991  	98.954343 
1967.085869  	98.396093 
1968.522747  	98.069725 
1969.959624  	98.241184 
1971.396502  	98.473224 
1972.833380  	98.460663 
1974.270258  	98.435932 
1975.707136  	98.587101 
1977.144014  	98.545209 
1978.580892  	98.310368 
1980.017770  	98.386954 
1981.454648  	98.706208 
1982.891526  	98.795086 
1984.328404  	98.569027 
1985.765282  	98.558467 
1987.202159  	98.778595 
1988.639037  	98.667318 
1990.075915  	98.631368 
1991.512793  	98.805487 
1992.949671  	98.890421 
1994.386549  	98.811882 
1995.823427  	98.651217 
1997.260305  	98.692712 
1998.697183  	98.992968 
2000.134061  	99.008831 
2001.570939  	98.933308 
2003.007817  	98.885301 
2004.444694  	98.819339 
2005.881572  	98.982456 
2007.318450  	98.912038 
2008.755328  	98.524777 
2010.192206  	98.496171 
2011.629084  	98.698434 
2013.065962  	98.990521 
2014.502840  	99.090851 
2015.939718  	98.850353 
2017.376596  	98.829887 
2018.813474  	98.931304 
2020.250352  	99.106094 
2021.687229  	99.454764 
2023.124107  	99.360342 
2024.560985  	99.407457 
2025.997863  	99.835326 
2027.434741  	99.641199 
2028.871619  	99.433186 
2030.308497  	99.663262 
2031.745375  	99.608161 
2033.182253  	99.596648 
2034.619131  	99.749681 
2036.056009  	99.553837 
2037.492887  	99.382285 
2038.929764  	99.509832 
2040.366642  	99.601508 
2041.803520  	99.562877 
2043.240398  	99.489606 
2044.677276  	99.359100 
2046.114154  	99.289816 
2047.551032  	99.198053 
2048.987910  	98.934209 
2050.424788  	98.980791 
2051.861666  	99.294561 
2053.298544  	99.158959 
2054.735422  	98.886953 
2056.172299  	99.099563 
2057.609177  	99.368161 
2059.046055  	99.403957 
2060.482933  	99.360779 
2061.919811  	99.316783 
2063.356689  	99.324578 
2064.793567  	99.282801 
2066.230445  	99.229342 
2067.667323  	99.220483 
2069.104201  	99.185227 
2070.541079  	99.237507 
2071.977957  	99.243190 
2073.414834  	99.209630 
2074.851712  	99.366357 
2076.288590  	99.250818 
2077.725468  	98.921195 
2079.162346  	98.956431 
2080.599224  	98.964167 
2082.036102  	98.819535 
2083.472980  	98.967667 
2084.909858  	99.130247 
2086.346736  	99.071819 
2087.783614  	98.972299 
2089.220492  	98.951228 
2090.657369  	98.983414 
2092.094247  	98.929251 
2093.531125  	99.035803 
2094.968003  	99.338639 
2096.404881  	99.282539 
2097.841759  	99.007341 
2099.278637  	98.832257 
2100.715515  	98.729637 
2102.152393  	98.860015 
2103.589271  	98.950362 
2105.026149  	98.830002 
2106.463027  	98.893498 
2107.899904  	99.018578 
2109.336782  	99.025262 
2110.773660  	99.001763 
2112.210538  	98.920871 
2113.647416  	98.932405 
2115.084294  	98.966577 
2116.521172  	98.906007 
2117.958050  	98.949542 
2119.394928  	98.962100 
2120.831806  	98.930976 
2122.268684  	99.061624 
2123.705562  	99.141556 
2125.142440  	99.110806 
2126.579317  	99.053827 
2128.016195  	99.002381 
2129.453073  	99.084490 
2130.889951  	99.124447 
2132.326829  	99.060808 
2133.763707  	98.997663 
2135.200585  	98.927744 
2136.637463  	99.155070 
2138.074341  	99.385177 
2139.511219  	99.224151 
2140.948097  	99.191621 
2142.384975  	99.102932 
2143.821852  	98.892311 
2145.258730  	99.241262 
2146.695608  	99.558235 
2148.132486  	99.387960 
2149.569364  	99.142682 
2151.006242  	98.910183 
2152.443120  	99.065171 
2153.879998  	99.472232 
2155.316876  	99.576941 
2156.753754  	99.639767 
2158.190632  	99.524747 
2159.627510  	99.236245 
2161.064387  	99.162127 
2162.501265  	99.046046 
2163.938143  	99.212687 
2165.375021  	99.626448 
2166.811899  	99.690438 
2168.248777  	99.508727 
2169.685655  	99.220378 
2171.122533  	99.078657 
2172.559411  	99.114979 
2173.996289  	99.013448 
2175.433167  	99.222904 
2176.870045  	99.485082 
2178.306922  	99.159771 
2179.743800  	99.157574 
2181.180678  	99.497262 
2182.617556  	99.306152 
2184.054434  	99.156892 
2185.491312  	99.314921 
2186.928190  	99.231673 
2188.365068  	98.990057 
2189.801946  	98.929168 
2191.238824  	99.236174 
2192.675702  	99.513053 
2194.112580  	99.328065 
2195.549457  	99.133633 
2196.986335  	99.259890 
2198.423213  	99.411666 
2199.860091  	99.353396 
2201.296969  	99.134128 
2202.733847  	99.138005 
2204.170725  	99.439430 
2205.607603  	99.511478 
2207.044481  	99.277017 
2208.481359  	99.129587 
2209.918237  	99.105824 
2211.355115  	99.184504 
2212.791992  	99.402738 
2214.228870  	99.398128 
2215.665748  	99.072176 
2217.102626  	99.053746 
2218.539504  	99.318254 
2219.976382  	99.258247 
2221.413260  	99.115975 
2222.850138  	99.187264 
2224.287016  	99.259489 
2225.723894  	99.360488 
2227.160772  	99.432501 
2228.597650  	99.447592 
2230.034527  	99.595444 
2231.471405  	99.632334 
2232.908283  	99.463504 
2234.345161  	99.410658 
2235.782039  	99.441078 
2237.218917  	99.384815 
2238.655795  	99.292164 
2240.092673  	99.260656 
2241.529551  	99.323536 
2242.966429  	99.387617 
2244.403307  	99.432725 
2245.840185  	99.413944 
2247.277062  	99.224291 
2248.713940  	99.071093 
2250.150818  	99.145452 
2251.587696  	99.295724 
2253.024574  	99.390570 
2254.461452  	99.313931 
2255.898330  	99.078907 
2257.335208  	98.930214 
2258.772086  	98.973569 
2260.208964  	99.096726 
2261.645842  	99.197087 
2263.082720  	99.311764 
2264.519597  	99.383099 
2265.956475  	99.197967 
2267.393353  	98.993350 
2268.830231  	99.069550 
2270.267109  	99.112781 
2271.703987  	99.003657 
2273.140865  	99.039660 
2274.577743  	99.157810 
2276.014621  	99.130867 
2277.451499  	99.017505 
2278.888377  	98.982164 
2280.325255  	99.017790 
2281.762132  	98.976528 
2283.199010  	98.868568 
2284.635888  	98.845664 
2286.072766  	98.890549 
2287.509644  	98.899603 
2288.946522  	98.925072 
2290.383400  	98.994476 
2291.820278  	98.976451 
2293.257156  	98.929710 
2294.694034  	98.985565 
2296.130912  	98.915131 
2297.567790  	98.927886 
2299.004667  	98.783922 
2300.441545  	98.854694 
2301.878423  	98.739256 
2303.315301  	98.739453 
2304.752179  	98.747050 
2306.189057  	98.765734 
2307.625935  	98.808139 
2309.062813  	98.782818 
2310.499691  	98.740526 
2311.936569  	98.730781 
2313.373447  	98.745554 
2314.810325  	98.775872 
2316.247202  	98.746512 
2317.684080  	98.711433 
2319.120958  	98.715355 
2320.557836  	98.661401 
2321.994714  	98.600544 
2323.431592  	98.614715 
2324.868470  	98.670495 
2326.305348  	98.731768 
2327.742226  	98.737571 
2329.179104  	98.728086 
2330.615982  	98.776520 
2332.052860  	98.795942 
2333.489737  	98.799704 
2334.926615  	98.841311 
2336.363493  	98.850122 
2337.800371  	98.868440 
2339.237249  	98.891212 
2340.674127  	98.875254 
2342.111005  	98.865497 
2343.547883  	98.813245 
2344.984761  	98.740914 
2346.421639  	98.732308 
2347.858517  	98.742178 
2349.295395  	98.748290 
2350.732273  	98.758402 
2352.169150  	98.761427 
2353.606028  	98.818809 
2355.042906  	98.826397 
2356.479784  	98.734676 
2357.916662  	98.712821 
2359.353540  	98.711883 
2360.790418  	98.697068 
2362.227296  	98.754890 
2363.664174  	98.806926 
2365.101052  	98.851694 
2366.537930  	98.931630 
2367.974808  	98.954127 
2369.411685  	98.875781 
2370.848563  	98.797649 
2372.285441  	98.796895 
2373.722319  	98.799203 
2375.159197  	98.771633 
2376.596075  	98.766974 
2378.032953  	98.770800 
2379.469831  	98.818603 
2380.906709  	98.892012 
2382.343587  	98.870313 
2383.780465  	98.837914 
2385.217343  	98.893856 
2386.654220  	98.939469 
2388.091098  	98.953752 
2389.527976  	98.971599 
2390.964854  	98.969453 
2392.401732  	98.973847 
2393.838610  	99.007100 
2395.275488  	99.019779 
2396.712366  	98.997017 
2398.149244  	99.009949 
2399.586122  	99.059664 
2401.023000  	99.054865 
2402.459878  	99.040152 
2403.896755  	99.057974 
2405.333633  	99.010821 
2406.770511  	98.937008 
2408.207389  	98.946123 
2409.644267  	99.033398 
2411.081145  	99.134680 
2412.518023  	99.132000 
2413.954901  	99.074288 
2415.391779  	99.080891 
2416.828657  	99.040532 
2418.265535  	98.982405 
2419.702413  	99.053523 
2421.139290  	99.089645 
2422.576168  	99.007469 
2424.013046  	98.975591 
2425.449924  	99.000947 
2426.886802  	98.988327 
2428.323680  	98.943880 
2429.760558  	98.919929 
2431.197436  	98.939019 
2432.634314  	98.968193 
2434.071192  	98.963862 
2435.508070  	98.929063 
2436.944948  	98.915708 
2438.381825  	98.922201 
2439.818703  	98.924349 
2441.255581  	98.989240 
2442.692459  	99.072521 
2444.129337  	99.040699 
2445.566215  	98.955372 
2447.003093  	98.910222 
2448.439971  	98.907774 
2449.876849  	98.938417 
2451.313727  	98.943776 
2452.750605  	98.949442 
2454.187483  	99.009900 
2455.624360  	99.024929 
2457.061238  	98.962175 
2458.498116  	98.957189 
2459.934994  	99.073270 
2461.371872  	99.163308 
2462.808750  	99.090745 
2464.245628  	99.009114 
2465.682506  	99.046571 
2467.119384  	99.069195 
2468.556262  	99.021928 
2469.993140  	98.980936 
2471.430018  	98.993138 
2472.866895  	99.039597 
2474.303773  	99.027869 
2475.740651  	98.991066 
2477.177529  	99.013006 
2478.614407  	99.023680 
2480.051285  	99.016391 
2481.488163  	99.046509 
2482.925041  	99.074647 
2484.361919  	99.063902 
2485.798797  	99.020180 
2487.235675  	99.001106 
2488.672553  	99.015823 
2490.109430  	99.013250 
2491.546308  	99.042163 
2492.983186  	99.068276 
2494.420064  	99.005893 
2495.856942  	98.963709 
2497.293820  	98.982401 
2498.730698  	99.003779 
2500.167576  	99.049144 
2501.604454  	99.060170 
2503.041332  	99.004010 
2504.478210  	98.996353 
2505.915088  	99.094315 
2507.351965  	99.207001 
2508.788843  	99.202254 
2510.225721  	99.085079 
2511.662599  	98.961088 
2513.099477  	98.932990 
2514.536355  	99.067050 
2515.973233  	99.203759 
2517.410111  	99.152342 
2518.846989  	99.028019 
2520.283867  	98.978268 
2521.720745  	99.015092 
2523.157623  	99.076350 
2524.594500  	99.061946 
2526.031378  	99.032516 
2527.468256  	99.085123 
2528.905134  	99.167421 
2530.342012  	99.167598 
2531.778890  	99.059029 
2533.215768  	99.059975 
2534.652646  	99.195548 
2536.089524  	99.185690 
2537.526402  	99.146101 
2538.963280  	99.191694 
2540.400158  	99.128373 
2541.837035  	99.087606 
2543.273913  	99.111166 
2544.710791  	99.039877 
2546.147669  	99.048693 
2547.584547  	99.126226 
2549.021425  	99.125927 
2550.458303  	99.158260 
2551.895181  	99.159919 
2553.332059  	99.090213 
2554.768937  	99.091519 
2556.205815  	99.143256 
2557.642693  	99.190711 
2559.079570  	99.184496 
2560.516448  	99.134471 
2561.953326  	99.127998 
2563.390204  	99.108409 
2564.827082  	99.114340 
2566.263960  	99.194865 
2567.700838  	99.204166 
2569.137716  	99.197761 
2570.574594  	99.212816 
2572.011472  	99.144958 
2573.448350  	99.135010 
2574.885228  	99.197893 
2576.322105  	99.186214 
2577.758983  	99.185258 
2579.195861  	99.227694 
2580.632739  	99.255172 
2582.069617  	99.276097 
2583.506495  	99.256538 
2584.943373  	99.225923 
2586.380251  	99.248194 
2587.817129  	99.289896 
2589.254007  	99.311405 
2590.690885  	99.308600 
2592.127763  	99.292838 
2593.564641  	99.251702 
2595.001518  	99.215518 
2596.438396  	99.255359 
2597.875274  	99.283698 
2599.312152  	99.231508 
2600.749030  	99.200157 
2602.185908  	99.200659 
2603.622786  	99.191182 
2605.059664  	99.203952 
2606.496542  	99.253306 
2607.933420  	99.313649 
2609.370298  	99.320215 
2610.807176  	99.285711 
2612.244053  	99.290521 
2613.680931  	99.302490 
2615.117809  	99.289398 
2616.554687  	99.263627 
2617.991565  	99.209146 
2619.428443  	99.172335 
2620.865321  	99.163175 
2622.302199  	99.136962 
2623.739077  	99.133388 
2625.175955  	99.159379 
2626.612833  	99.172686 
2628.049711  	99.162341 
2629.486588  	99.134296 
2630.923466  	99.140750 
2632.360344  	99.173862 
2633.797222  	99.165605 
2635.234100  	99.142839 
2636.670978  	99.129736 
2638.107856  	99.111061 
2639.544734  	99.104881 
2640.981612  	99.101061 
2642.418490  	99.092494 
2643.855368  	99.088427 
2645.292246  	99.075476 
2646.729123  	99.064158 
2648.166001  	99.053643 
2649.602879  	99.036725 
2651.039757  	99.044238 
2652.476635  	99.060365 
2653.913513  	99.041142 
2655.350391  	99.010436 
2656.787269  	99.015226 
2658.224147  	99.034255 
2659.661025  	99.016436 
2661.097903  	98.999290 
2662.534781  	99.021071 
2663.971658  	99.020732 
2665.408536  	99.001299 
2666.845414  	99.017543 
2668.282292  	99.029865 
2669.719170  	99.024793 
2671.156048  	99.036633 
2672.592926  	99.030345 
2674.029804  	98.992342 
2675.466682  	98.965445 
2676.903560  	98.946248 
2678.340438  	98.927253 
2679.777316  	98.935447 
2681.214193  	98.953623 
2682.651071  	98.956893 
2684.087949  	98.964254 
2685.524827  	98.955608 
2686.961705  	98.921139 
2688.398583  	98.908973 
2689.835461  	98.900140 
2691.272339  	98.880034 
2692.709217  	98.892051 
2694.146095  	98.897169 
2695.582973  	98.878988 
2697.019851  	98.887866 
2698.456728  	98.895596 
2699.893606  	98.884811 
2701.330484  	98.868571 
2702.767362  	98.839787 
2704.204240  	98.834830 
2705.641118  	98.824338 
2707.077996  	98.757858 
2708.514874  	98.719060 
2709.951752  	98.740489 
2711.388630  	98.765200 
2712.825508  	98.779841 
2714.262386  	98.763709 
2715.699263  	98.725054 
2717.136141  	98.708805 
2718.573019  	98.713215 
2720.009897  	98.735287 
2721.446775  	98.754357 
2722.883653  	98.733788 
2724.320531  	98.696594 
2725.757409  	98.672960 
2727.194287  	98.684731 
2728.631165  	98.734654 
2730.068043  	98.746154 
2731.504921  	98.696246 
2732.941798  	98.674058 
2734.378676  	98.698148 
2735.815554  	98.716104 
2737.252432  	98.732438 
2738.689310  	98.741471 
2740.126188  	98.704796 
2741.563066  	98.663333 
2742.999944  	98.655334 
2744.436822  	98.633677 
2745.873700  	98.603068 
2747.310578  	98.609445 
2748.747456  	98.626472 
2750.184333  	98.624614 
2751.621211  	98.613359 
2753.058089  	98.597925 
2754.494967  	98.579177 
2755.931845  	98.571938 
2757.368723  	98.591357 
2758.805601  	98.607882 
2760.242479  	98.602233 
2761.679357  	98.600075 
2763.116235  	98.588809 
2764.553113  	98.575509 
2765.989991  	98.581285 
2767.426868  	98.554995 
2768.863746  	98.523211 
2770.300624  	98.538670 
2771.737502  	98.535513 
2773.174380  	98.524839 
2774.611258  	98.553895 
2776.048136  	98.553214 
2777.485014  	98.512668 
2778.921892  	98.490026 
2780.358770  	98.498016 
2781.795648  	98.528438 
2783.232526  	98.552583 
2784.669403  	98.564464 
2786.106281  	98.565973 
2787.543159  	98.529898 
2788.980037  	98.482178 
2790.416915  	98.461024 
2791.853793  	98.449970 
2793.290671  	98.438218 
2794.727549  	98.442283 
2796.164427  	98.472287 
2797.601305  	98.471126 
2799.038183  	98.396468 
2800.475061  	98.339917 
2801.911938  	98.365976 
2803.348816  	98.416721 
2804.785694  	98.429501 
2806.222572  	98.394746 
2807.659450  	98.361001 
2809.096328  	98.341950 
2810.533206  	98.315562 
2811.970084  	98.319946 
2813.406962  	98.338909 
2814.843840  	98.329265 
2816.280718  	98.327626 
2817.717596  	98.319192 
2819.154474  	98.291188 
2820.591351  	98.284871 
2822.028229  	98.282296 
2823.465107  	98.282301 
2824.901985  	98.282383 
2826.338863  	98.259570 
2827.775741  	98.266736 
2829.212619  	98.287480 
2830.649497  	98.261724 
2832.086375  	98.234934 
2833.523253  	98.211300 
2834.960131  	98.173271 
2836.397009  	98.165275 
2837.833886  	98.173059 
2839.270764  	98.157136 
2840.707642  	98.126208 
2842.144520  	98.105375 
2843.581398  	98.103134 
2845.018276  	98.109608 
2846.455154  	98.136290 
2847.892032  	98.159885 
2849.328910  	98.147262 
2850.765788  	98.140509 
2852.202666  	98.127892 
2853.639544  	98.093813 
2855.076421  	98.099573 
2856.513299  	98.099533 
2857.950177  	98.050654 
2859.387055  	98.026765 
2860.823933  	98.024441 
2862.260811  	98.008426 
2863.697689  	98.008317 
2865.134567  	98.027179 
2866.571445  	98.018312 
2868.008323  	97.963319 
2869.445201  	97.928014 
2870.882079  	97.924400 
2872.318956  	97.888066 
2873.755834  	97.854051 
2875.192712  	97.848257 
2876.629590  	97.841366 
2878.066468  	97.854275 
2879.503346  	97.854341 
2880.940224  	97.835231 
2882.377102  	97.843779 
2883.813980  	97.835409 
2885.250858  	97.831365 
2886.687736  	97.858205 
2888.124614  	97.830099 
2889.561491  	97.792368 
2890.998369  	97.802985 
2892.435247  	97.791355 
2893.872125  	97.761769 
2895.309003  	97.746668 
2896.745881  	97.757124 
2898.182759  	97.786364 
2899.619637  	97.768007 
2901.056515  	97.733853 
2902.493393  	97.727552 
2903.930271  	97.699013 
2905.367149  	97.699081 
2906.804026  	97.734400 
2908.240904  	97.698885 
2909.677782  	97.642578 
2911.114660  	97.637547 
2912.551538  	97.631734 
2913.988416  	97.617131 
2915.425294  	97.609668 
2916.862172  	97.592690 
2918.299050  	97.579472 
2919.735928  	97.579310 
2921.172806  	97.570248 
2922.609684  	97.554141 
2924.046561  	97.559165 
2925.483439  	97.582486 
2926.920317  	97.583425 
2928.357195  	97.535111 
2929.794073  	97.468480 
2931.230951  	97.424353 
2932.667829  	97.390717 
2934.104707  	97.379025 
2935.541585  	97.408288 
2936.978463  	97.425417 
2938.415341  	97.435816 
2939.852219  	97.447876 
2941.289096  	97.389617 
2942.725974  	97.330371 
2944.162852  	97.327315 
2945.599730  	97.280645 
2947.036608  	97.258404 
2948.473486  	97.319526 
2949.910364  	97.298887 
2951.347242  	97.205927 
2952.784120  	97.181141 
2954.220998  	97.194793 
2955.657876  	97.193955 
2957.094754  	97.179821 
2958.531631  	97.160643 
2959.968509  	97.155097 
2961.405387  	97.146167 
2962.842265  	97.121798 
2964.279143  	97.098575 
2965.716021  	97.066754 
2967.152899  	97.028341 
2968.589777  	97.026178 
2970.026655  	97.056746 
2971.463533  	97.049608 
2972.900411  	97.001989 
2974.337289  	96.972055 
2975.774166  	96.952922 
2977.211044  	96.937411 
2978.647922  	96.946453 
2980.084800  	96.964178 
2981.521678  	96.979018 
2982.958556  	96.957725 
2984.395434  	96.880095 
2985.832312  	96.823682 
2987.269190  	96.823598 
2988.706068  	96.831344 
2990.142946  	96.842828 
2991.579824  	96.871172 
2993.016701  	96.869766 
2994.453579  	96.797769 
2995.890457  	96.736434 
2997.327335  	96.752608 
2998.764213  	96.768211 
3000.201091  	96.743042 
3001.637969  	96.686879 
3003.074847  	96.617191 
3004.511725  	96.608466 
3005.948603  	96.602086 
3007.385481  	96.560905 
3008.822359  	96.611249 
3010.259236  	96.639379 
3011.696114  	96.546791 
3013.132992  	96.534242 
3014.569870  	96.558115 
3016.006748  	96.470498 
3017.443626  	96.416627 
3018.880504  	96.471491 
3020.317382  	96.525591 
3021.754260  	96.503467 
3023.191138  	96.447558 
3024.628016  	96.439798 
3026.064894  	96.435965 
3027.501771  	96.403355 
3028.938649  	96.374959 
3030.375527  	96.320961 
3031.812405  	96.287775 
3033.249283  	96.314946 
3034.686161  	96.327325 
3036.123039  	96.322103 
3037.559917  	96.284558 
3038.996795  	96.203957 
3040.433673  	96.170411 
3041.870551  	96.179752 
3043.307429  	96.184003 
3044.744306  	96.188725 
3046.181184  	96.161910 
3047.618062  	96.100845 
3049.054940  	96.047700 
3050.491818  	96.032887 
3051.928696  	96.026399 
3053.365574  	95.978184 
3054.802452  	95.966473 
3056.239330  	95.998618 
3057.676208  	95.950340 
3059.113086  	95.896398 
3060.549964  	95.916357 
3061.986842  	95.909788 
3063.423719  	95.893755 
3064.860597  	95.928689 
3066.297475  	95.918279 
3067.734353  	95.821321 
3069.171231  	95.768461 
3070.608109  	95.795589 
3072.044987  	95.792389 
3073.481865  	95.783616 
3074.918743  	95.791841 
3076.355621  	95.720543 
3077.792499  	95.655157 
3079.229377  	95.661986 
3080.666254  	95.655729 
3082.103132  	95.676055 
3083.540010  	95.679633 
3084.976888  	95.602698 
3086.413766  	95.575254 
3087.850644  	95.573822 
3089.287522  	95.530500 
3090.724400  	95.532271 
3092.161278  	95.574145 
3093.598156  	95.601230 
3095.035034  	95.568557 
3096.471912  	95.492045 
3097.908789  	95.466169 
3099.345667  	95.451578 
3100.782545  	95.441346 
3102.219423  	95.463468 
3103.656301  	95.411884 
3105.093179  	95.347018 
3106.530057  	95.330540 
3107.966935  	95.275287 
3109.403813  	95.251664 
3110.840691  	95.252329 
3112.277569  	95.222895 
3113.714447  	95.273477 
3115.151324  	95.321982 
3116.588202  	95.276638 
3118.025080  	95.233088 
3119.461958  	95.171888 
3120.898836  	95.116051 
3122.335714  	95.142349 
3123.772592  	95.153469 
3125.209470  	95.073018 
3126.646348  	94.986993 
3128.083226  	95.009157 
3129.520104  	95.076091 
3130.956982  	95.061264 
3132.393859  	95.018030 
3133.830737  	94.968295 
3135.267615  	94.902172 
3136.704493  	94.897402 
3138.141371  	94.906280 
3139.578249  	94.874265 
3141.015127  	94.828989 
3142.452005  	94.785431 
3143.888883  	94.808761 
3145.325761  	94.843083 
3146.762639  	94.789648 
3148.199517  	94.701744 
3149.636394  	94.606308 
3151.073272  	94.564835 
3152.510150  	94.591299 
3153.947028  	94.576208 
3155.383906  	94.581174 
3156.820784  	94.588983 
3158.257662  	94.512172 
3159.694540  	94.484055 
3161.131418  	94.469528 
3162.568296  	94.404488 
3164.005174  	94.420674 
3165.442052  	94.462640 
3166.878929  	94.473858 
3168.315807  	94.481360 
3169.752685  	94.448366 
3171.189563  	94.429035 
3172.626441  	94.396147 
3174.063319  	94.328269 
3175.500197  	94.311813 
3176.937075  	94.270545 
3178.373953  	94.236684 
3179.810831  	94.283108 
3181.247709  	94.263684 
3182.684587  	94.215428 
3184.121464  	94.211975 
3185.558342  	94.192430 
3186.995220  	94.173659 
3188.432098  	94.108903 
3189.868976  	94.033600 
3191.305854  	94.024636 
3192.742732  	93.992140 
3194.179610  	94.001593 
3195.616488  	94.034283 
3197.053366  	93.945600 
3198.490244  	93.940260 
3199.927122  	94.038515 
3201.363999  	93.957355 
3202.800877  	93.811572 
3204.237755  	93.829007 
3205.674633  	93.885384 
3207.111511  	93.838909 
3208.548389  	93.816322 
3209.985267  	93.851509 
3211.422145  	93.803098 
3212.859023  	93.807118 
3214.295901  	93.874000 
3215.732779  	93.736670 
3217.169657  	93.608007 
3218.606534  	93.694176 
3220.043412  	93.762235 
3221.480290  	93.766856 
3222.917168  	93.738712 
3224.354046  	93.689889 
3225.790924  	93.714433 
3227.227802  	93.722184 
3228.664680  	93.714835 
3230.101558  	93.724887 
3231.538436  	93.630069 
3232.975314  	93.551406 
3234.412192  	93.557661 
3235.849069  	93.545856 
3237.285947  	93.587446 
3238.722825  	93.610154 
3240.159703  	93.539680 
3241.596581  	93.517026 
3243.033459  	93.487465 
3244.470337  	93.383783 
3245.907215  	93.368342 
3247.344093  	93.493881 
3248.780971  	93.574187 
3250.217849  	93.513539 
3251.654727  	93.474579 
3253.091604  	93.477136 
3254.528482  	93.413784 
3255.965360  	93.387370 
3257.402238  	93.389445 
3258.839116  	93.359232 
3260.275994  	93.402973 
3261.712872  	93.470643 
3263.149750  	93.489078 
3264.586628  	93.472569 
3266.023506  	93.436817 
3267.460384  	93.463591 
3268.897262  	93.455864 
3270.334139  	93.392676 
3271.771017  	93.477722 
3273.207895  	93.526070 
3274.644773  	93.345186 
3276.081651  	93.215293 
3277.518529  	93.263064 
3278.955407  	93.316373 
3280.392285  	93.307804 
3281.829163  	93.362172 
3283.266041  	93.451656 
3284.702919  	93.362190 
3286.139797  	93.261396 
3287.576674  	93.364941 
3289.013552  	93.461431 
3290.450430  	93.453883 
3291.887308  	93.420658 
3293.324186  	93.415333 
3294.761064  	93.466833 
3296.197942  	93.453112 
3297.634820  	93.441362 
3299.071698  	93.513564 
3300.508576  	93.445634 
3301.945454  	93.315882 
3303.382332  	93.315819 
3304.819210  	93.352959 
3306.256087  	93.422804 
3307.692965  	93.440002 
3309.129843  	93.330788 
3310.566721  	93.307628 
3312.003599  	93.407486 
3313.440477  	93.496787 
3314.877355  	93.511653 
3316.314233  	93.453466 
3317.751111  	93.400732 
3319.187989  	93.347075 
3320.624867  	93.323592 
3322.061745  	93.375002 
3323.498622  	93.365394 
3324.935500  	93.332624 
3326.372378  	93.364729 
3327.809256  	93.366306 
3329.246134  	93.362041 
3330.683012  	93.377563 
3332.119890  	93.411377 
3333.556768  	93.451937 
3334.993646  	93.391449 
3336.430524  	93.341665 
3337.867402  	93.343665 
3339.304280  	93.288625 
3340.741157  	93.358917 
3342.178035  	93.472791 
3343.614913  	93.419702 
3345.051791  	93.402074 
3346.488669  	93.375504 
3347.925547  	93.243365 
3349.362425  	93.216175 
3350.799303  	93.224262 
3352.236181  	93.177580 
3353.673059  	93.180943 
3355.109937  	93.215163 
3356.546815  	93.257582 
3357.983692  	93.294059 
3359.420570  	93.333804 
3360.857448  	93.372361 
3362.294326  	93.335819 
3363.731204  	93.295474 
3365.168082  	93.266071 
3366.604960  	93.214814 
3368.041838  	93.228469 
3369.478716  	93.231762 
3370.915594  	93.252593 
3372.352472  	93.362063 
3373.789350  	93.359017 
3375.226227  	93.292579 
3376.663105  	93.271112 
3378.099983  	93.212784 
3379.536861  	93.197788 
3380.973739  	93.162270 
3382.410617  	93.124963 
3383.847495  	93.250301 
3385.284373  	93.263912 
3386.721251  	93.156899 
3388.158129  	93.206293 
3389.595007  	93.234735 
3391.031885  	93.232883 
3392.468762  	93.315184 
3393.905640  	93.361579 
3395.342518  	93.411119 
3396.779396  	93.392276 
3398.216274  	93.249291 
3399.653152  	93.261222 
3401.090030  	93.389692 
3402.526908  	93.375375 
3403.963786  	93.279411 
3405.400664  	93.291556 
3406.837542  	93.347174 
3408.274420  	93.255758 
3409.711297  	93.202716 
3411.148175  	93.329359 
3412.585053  	93.334795 
3414.021931  	93.252606 
3415.458809  	93.307664 
3416.895687  	93.375891 
3418.332565  	93.426325 
3419.769443  	93.493257 
3421.206321  	93.540088 
3422.643199  	93.604684 
3424.080077  	93.628647 
3425.516955  	93.616089 
3426.953832  	93.616209 
3428.390710  	93.531075 
3429.827588  	93.468049 
3431.264466  	93.575791 
3432.701344  	93.670000 
3434.138222  	93.676305 
3435.575100  	93.751737 
3437.011978  	93.817484 
3438.448856  	93.715148 
3439.885734  	93.609256 
3441.322612  	93.630569 
3442.759490  	93.705898 
3444.196367  	93.860581 
3445.633245  	93.990086 
3447.070123  	93.952064 
3448.507001  	93.888577 
3449.943879  	93.845210 
3451.380757  	93.832523 
3452.817635  	93.988969 
3454.254513  	94.162346 
3455.691391  	94.212794 
3457.128269  	94.181877 
3458.565147  	94.091857 
3460.002025  	94.071834 
3461.438902  	94.102033 
3462.875780  	94.138487 
3464.312658  	94.301497 
3465.749536  	94.367944 
3467.186414  	94.249388 
3468.623292  	94.270980 
3470.060170  	94.412788 
3471.497048  	94.457968 
3472.933926  	94.373178 
3474.370804  	94.279719 
3475.807682  	94.331149 
3477.244560  	94.392364 
3478.681437  	94.409727 
3480.118315  	94.515766 
3481.555193  	94.564494 
3482.992071  	94.551986 
3484.428949  	94.622616 
3485.865827  	94.657325 
3487.302705  	94.642181 
3488.739583  	94.655596 
3490.176461  	94.714977 
3491.613339  	94.763360 
3493.050217  	94.703131 
3494.487095  	94.749093 
3495.923972  	95.011654 
3497.360850  	95.173681 
3498.797728  	95.147140 
3500.234606  	95.049789 
3501.671484  	94.999077 
3503.108362  	95.118242 
3504.545240  	95.236883 
3505.982118  	95.258036 
3507.418996  	95.264162 
3508.855874  	95.209927 
3510.292752  	95.179495 
3511.729630  	95.225550 
3513.166507  	95.294031 
3514.603385  	95.402826 
3516.040263  	95.435815 
3517.477141  	95.441956 
3518.914019  	95.506054 
3520.350897  	95.455112 
3521.787775  	95.398582 
3523.224653  	95.468291 
3524.661531  	95.511760 
3526.098409  	95.550458 
3527.535287  	95.595517 
3528.972165  	95.616655 
3530.409043  	95.696489 
3531.845920  	95.797540 
3533.282798  	95.873270 
3534.719676  	95.848210 
3536.156554  	95.777348 
3537.593432  	95.907601 
3539.030310  	96.069326 
3540.467188  	96.075058 
3541.904066  	96.072138 
3543.340944  	96.053478 
3544.777822  	96.068622 
3546.214700  	96.207192 
3547.651578  	96.295347 
3549.088455  	96.294428 
3550.525333  	96.217606 
3551.962211  	96.121287 
3553.399089  	96.242209 
3554.835967  	96.423927 
3556.272845  	96.432786 
3557.709723  	96.417855 
3559.146601  	96.497327 
3560.583479  	96.604418 
3562.020357  	96.636344 
3563.457235  	96.649357 
3564.894113  	96.682132 
3566.330990  	96.623989 
3567.767868  	96.647099 
3569.204746  	96.780584 
3570.641624  	96.699461 
3572.078502  	96.677960 
3573.515380  	96.841735 
3574.952258  	96.885354 
3576.389136  	96.886745 
3577.826014  	96.923273 
3579.262892  	96.927549 
3580.699770  	96.949881 
3582.136648  	97.034657 
3583.573525  	97.103960 
3585.010403  	97.110861 
3586.447281  	97.093528 
3587.884159  	97.091507 
3589.321037  	97.154810 
3590.757915  	97.191670 
3592.194793  	97.130459 
3593.631671  	97.048879 
3595.068549  	97.140605 
3596.505427  	97.234140 
3597.942305  	97.205832 
3599.379183  	97.246112 
3600.816060  	97.337855 
3602.252938  	97.380352 
3603.689816  	97.405086 
3605.126694  	97.409331 
3606.563572  	97.444199 
3608.000450  	97.551807 
3609.437328  	97.590006 
3610.874206  	97.540472 
3612.311084  	97.456124 
3613.747962  	97.428098 
3615.184840  	97.524789 
3616.621718  	97.579212 
3618.058595  	97.544414 
3619.495473  	97.517654 
3620.932351  	97.503854 
3622.369229  	97.570770 
3623.806107  	97.707119 
3625.242985  	97.764277 
3626.679863  	97.735360 
3628.116741  	97.794710 
3629.553619  	97.931996 
3630.990497  	97.834568 
3632.427375  	97.699180 
3633.864253  	97.677429 
3635.301130  	97.766002 
3636.738008  	97.851630 
3638.174886  	97.828524 
3639.611764  	97.752690 
3641.048642  	97.672201 
3642.485520  	97.797154 
3643.922398  	98.053529 
3645.359276  	98.141273 
3646.796154  	98.039917 
3648.233032  	97.968435 
3649.669910  	98.018698 
3651.106788  	97.976662 
3652.543665  	98.017156 
3653.980543  	98.061000 
3655.417421  	98.051537 
3656.854299  	98.254382 
3658.291177  	98.476893 
3659.728055  	98.364726 
3661.164933  	98.252031 
3662.601811  	98.399052 
3664.038689  	98.648663 
3665.475567  	98.754610 
3666.912445  	98.736883 
3668.349323  	98.689233 
3669.786200  	98.827049 
3671.223078  	99.066896 
3672.659956  	98.967490 
3674.096834  	98.754219 
3675.533712  	98.636432 
3676.970590  	98.806556 
3678.407468  	98.924281 
3679.844346  	99.017527 
3681.281224  	99.120209 
3682.718102  	99.237272 
3684.154980  	99.432639 
3685.591858  	99.508727 
3687.028735  	99.445203 
3688.465613  	99.407310 
3689.902491  	99.412244 
3691.339369  	99.425368 
3692.776247  	99.385807 
3694.213125  	99.362584 
3695.650003  	99.445507 
3697.086881  	99.523335 
3698.523759  	99.601961 
3699.960637  	99.693224 
3701.397515  	99.701259 
3702.834393  	99.642521 
3704.271270  	99.672368 
3705.708148  	99.738212 
3707.145026  	99.818976 
3708.581904  	99.816452 
3710.018782  	99.728785 
3711.455660  	99.692452 
3712.892538  	99.675250 
3714.329416  	99.636468 
3715.766294  	99.682900 
3717.203172  	99.756762 
3718.640050  	99.827671 
3720.076928  	99.886805 
3721.513805  	99.903865 
3722.950683  	99.898823 
3724.387561  	99.862170 
3725.824439  	99.809693 
3727.261317  	99.814755 
3728.698195  	99.842411 
3730.135073  	99.888995 
3731.571951  	99.994033 
3733.008829  	99.987149 
3734.445707  	99.754266 
3735.882585  	99.572438 
3737.319463  	99.681063 
3738.756340  	99.863061 
3740.193218  	99.967207 
3741.630096  	99.969174 
3743.066974  	99.940502 
3744.503852  	100.036168 
3745.940730  	100.087499 
3747.377608  	99.945037 
3748.814486  	99.820410 
3750.251364  	99.762844 
3751.688242  	99.868539 
3753.125120  	99.991166 
3754.561998  	99.927280 
3755.998875  	99.854705 
3757.435753  	99.892220 
3758.872631  	99.976132 
3760.309509  	100.026224 
3761.746387  	99.991939 
3763.183265  	99.913685 
3764.620143  	99.932951 
3766.057021  	100.062527 
3767.493899  	100.135495 
3768.930777  	100.119321 
3770.367655  	100.007783 
3771.804533  	99.925026 
3773.241411  	100.040229 
3774.678288  	100.198211 
3776.115166  	100.212937 
3777.552044  	100.161728 
3778.988922  	100.238446 
3780.425800  	100.345599 
3781.862678  	100.236159 
3783.299556  	100.127591 
3784.736434  	100.127659 
3786.173312  	100.132433 
3787.610190  	100.191905 
3789.047068  	100.300431 
3790.483946  	100.280936 
3791.920823  	100.098339 
3793.357701  	100.052575 
3794.794579  	100.219915 
3796.231457  	100.382460 
3797.668335  	100.238733 
3799.105213  	100.013113 
3800.542091  	99.949417 
3801.978969  	100.027255 
3803.415847  	100.165557 
3804.852725  	100.090818 
3806.289603  	99.902535 
3807.726481  	99.832998 
3809.163358  	100.032004 
3810.600236  	100.188937 
3812.037114  	100.180158 
3813.473992  	100.058487 
3814.910870  	100.186952 
3816.347748  	100.526591 
3817.784626  	100.262959 
3819.221504  	99.842763 
3820.658382  	99.752059 
3822.095260  	99.970466 
3823.532138  	100.077568 
3824.969016  	100.098234 
3826.405893  	100.122054 
3827.842771  	99.997510 
3829.279649  	99.939279 
3830.716527  	100.125088 
3832.153405  	100.296896 
3833.590283  	100.215514 
3835.027161  	100.129762 
3836.464039  	100.151060 
3837.900917  	100.085505 
3839.337795  	99.883365 
3840.774673  	99.885315 
3842.211551  	99.985859 
3843.648428  	99.893148 
3845.085306  	99.847616 
3846.522184  	100.041268 
3847.959062  	100.198864 
3849.395940  	100.237092 
3850.832818  	100.237104 
3852.269696  	100.341869 
3853.706574  	100.491606 
3855.143452  	100.017982 
3856.580330  	99.717820 
3858.017208  	99.844471 
3859.454086  	100.014673 
3860.890963  	100.098329 
3862.327841  	100.234925 
3863.764719  	100.310987 
3865.201597  	100.185038 
3866.638475  	99.980538 
3868.075353  	100.016283 
3869.512231  	100.267554 
3870.949109  	100.314362 
3872.385987  	100.121159 
3873.822865  	100.083761 
3875.259743  	100.102242 
3876.696621  	100.173229 
3878.133498  	100.274418 
3879.570376  	100.345036 
3881.007254  	100.325286 
3882.444132  	100.124945 
3883.881010  	100.021760 
3885.317888  	100.191992 
3886.754766  	100.316663 
3888.191644  	100.240152 
3889.628522  	100.247884 
3891.065400  	100.193871 
3892.502278  	100.047541 
3893.939156  	100.100109 
3895.376033  	100.206617 
3896.812911  	100.203764 
3898.249789  	100.202786 
3899.686667  	100.380431 
3901.123545  	100.429860 
3902.560423  	100.113288 
3903.997301  	99.961249 
3905.434179  	100.154701 
3906.871057  	100.252451 
3908.307935  	100.266859 
3909.744813  	100.313683 
3911.181691  	100.389372 
3912.618568  	100.434256 
3914.055446  	100.403079 
3915.492324  	100.351056 
3916.929202  	100.340039 
3918.366080  	100.309055 
3919.802958  	100.326948 
3921.239836  	100.362487 
3922.676714  	100.330333 
3924.113592  	100.292808 
3925.550470  	100.345025 
3926.987348  	100.397747 
3928.424226  	100.386471 
3929.861103  	100.352514 
3931.297981  	100.309546 
3932.734859  	100.257286 
3934.171737  	100.281634 
3935.608615  	100.376367 
3937.045493  	100.426607 
3938.482371  	100.381644 
3939.919249  	100.320079 
3941.356127  	100.326875 
3942.793005  	100.370527 
3944.229883  	100.339077 
3945.666761  	100.288835 
3947.103638  	100.286469 
3948.540516  	100.287450 
3949.977394  	100.304854 
3951.414272  	100.328204 
3952.851150  	100.298629 
3954.288028  	100.305299 
3955.724906  	100.318882 
3957.161784  	100.317785 
3958.598662  	100.360010 
3960.035540  	100.395813 
3961.472418  	100.376726 
3962.909296  	100.362007 
3964.346173  	100.290158 
3965.783051  	100.274919 
3967.219929  	100.348258 
3968.656807  	100.325802 
3970.093685  	100.287029 
3971.530563  	100.334018 
3972.967441  	100.369438 
3974.404319  	100.365096 
3975.841197  	100.311548 
3977.278075  	100.262069 
3978.714953  	100.290164 
3980.151831  	100.327146 
3981.588708  	100.333642 
3983.025586  	100.313596 
3984.462464  	100.280295 
3985.899342  	100.282456 
3987.336220  	100.296605 
3988.773098  	100.312238 
3990.209976  	100.310436 
3991.646854  	100.248274 
3993.083732  	100.237804 
3994.520610  	100.299575 
3995.957488  	100.316513 
3997.394366  	100.330703 
3998.831244  	100.369580 
4000.268121  	100.371893 