##TITLE=No Description
##DATA TYPE=INFRARED SPECTRUM
##XUNITS=1/CM
##YUNITS=%T
399.452061  	37.429015 
400.888939  	37.005315 
402.325817  	38.341556 
403.762695  	38.367131 
405.199573  	35.965467 
406.636451  	35.993357 
408.073328  	35.946047 
409.510206  	36.345148 
410.947084  	37.016089 
412.383962  	35.518024 
413.820840  	35.648600 
415.257718  	35.955862 
416.694596  	35.082049 
418.131474  	35.944806 
419.568352  	35.450649 
421.005230  	35.204356 
422.442108  	36.015841 
423.878986  	35.687494 
425.315863  	36.085548 
426.752741  	35.582702 
428.189619  	34.385196 
429.626497  	35.200699 
431.063375  	35.114929 
432.500253  	34.719556 
433.937131  	35.295264 
435.374009  	34.539808 
436.810887  	34.611334 
438.247765  	35.189770 
439.684643  	34.663789 
441.121521  	35.126418 
442.558398  	35.164804 
443.995276  	34.790176 
445.432154  	35.035461 
446.869032  	34.205635 
448.305910  	34.377164 
449.742788  	35.012317 
451.179666  	34.594478 
452.616544  	35.556036 
454.053422  	36.057323 
455.490300  	35.620752 
456.927178  	36.413162 
458.364056  	36.449050 
459.800933  	36.581485 
461.237811  	37.598711 
462.674689  	37.851735 
464.111567  	38.780820 
465.548445  	39.703457 
466.985323  	39.971179 
468.422201  	41.349054 
469.859079  	42.505048 
471.295957  	43.324662 
472.732835  	44.995444 
474.169713  	46.420236 
475.606591  	47.943233 
477.043469  	49.360947 
478.480346  	50.491741 
479.917224  	52.428497 
481.354102  	54.142482 
482.790980  	55.609356 
484.227858  	57.783223 
485.664736  	59.597772 
487.101614  	61.134974 
488.538492  	62.726997 
489.975370  	64.044505 
491.412248  	65.668054 
492.849126  	67.171103 
494.286004  	68.306009 
495.722881  	69.716525 
497.159759  	70.710487 
498.596637  	71.215452 
500.033515  	71.999531 
501.470393  	72.751320 
502.907271  	73.346143 
504.344149  	73.814267 
505.781027  	74.015021 
507.217905  	74.234600 
508.654783  	74.588517 
510.091661  	74.974103 
511.528539  	75.170614 
512.965416  	75.007981 
514.402294  	74.960511 
515.839172  	75.079599 
517.276050  	74.974412 
518.712928  	74.814696 
520.149806  	74.799475 
521.586684  	74.887656 
523.023562  	74.869972 
524.460440  	74.642198 
525.897318  	74.526429 
527.334196  	74.473968 
528.771074  	74.314533 
530.207951  	74.149457 
531.644829  	73.732526 
533.081707  	73.246365 
534.518585  	73.081091 
535.955463  	72.903002 
537.392341  	72.607852 
538.829219  	72.372412 
540.266097  	72.134828 
541.702975  	72.049369 
543.139853  	72.078549 
544.576731  	72.008387 
546.013609  	71.916247 
547.450486  	71.791848 
548.887364  	71.600960 
550.324242  	71.441898 
551.761120  	71.341620 
553.197998  	71.264472 
554.634876  	71.205355 
556.071754  	71.298563 
557.508632  	71.431717 
558.945510  	71.302648 
560.382388  	71.204109 
561.819266  	71.347827 
563.256144  	71.410487 
564.693021  	71.419473 
566.129899  	71.476896 
567.566777  	71.551843 
569.003655  	71.832039 
570.440533  	72.186932 
571.877411  	72.390866 
573.314289  	72.480282 
574.751167  	72.439571 
576.188045  	72.489127 
577.624923  	72.743542 
579.061801  	72.903245 
580.498679  	73.133325 
581.935556  	73.505582 
583.372434  	73.601202 
584.809312  	73.677903 
586.246190  	74.083268 
587.683068  	74.461259 
589.119946  	74.659664 
590.556824  	74.820165 
591.993702  	74.982241 
593.430580  	75.219014 
594.867458  	75.478926 
596.304336  	75.701117 
597.741214  	75.941945 
599.178091  	76.154444 
600.614969  	76.357009 
602.051847  	76.632168 
603.488725  	76.888676 
604.925603  	77.097168 
606.362481  	77.305303 
607.799359  	77.524063 
609.236237  	77.766965 
610.673115  	78.012274 
612.109993  	78.216494 
613.546871  	78.394480 
614.983749  	78.575216 
616.420626  	78.739755 
617.857504  	78.884888 
619.294382  	79.017680 
620.731260  	79.150087 
622.168138  	79.307811 
623.605016  	79.460196 
625.041894  	79.578710 
626.478772  	79.694959 
627.915650  	79.799934 
629.352528  	79.849283 
630.789406  	79.894450 
632.226284  	79.934406 
633.663161  	79.926772 
635.100039  	79.891688 
636.536917  	79.843905 
637.973795  	79.787171 
639.410673  	79.695100 
640.847551  	79.586096 
642.284429  	79.432353 
643.721307  	79.285500 
645.158185  	79.127766 
646.595063  	78.879332 
648.031941  	78.616333 
649.468819  	78.431129 
650.905696  	78.314808 
652.342574  	78.204240 
653.779452  	78.091791 
655.216330  	77.988158 
656.653208  	77.870511 
658.090086  	77.742500 
659.526964  	77.578411 
660.963842  	77.346219 
662.400720  	77.009099 
663.837598  	76.634199 
665.274476  	76.196168 
666.711354  	75.762922 
668.148231  	75.205790 
669.585109  	74.673621 
671.021987  	74.220664 
672.458865  	73.723432 
673.895743  	73.261265 
675.332621  	72.808849 
676.769499  	72.272279 
678.206377  	71.778447 
679.643255  	71.334652 
681.080133  	70.867115 
682.517011  	70.383651 
683.953889  	69.887697 
685.390766  	69.418625 
686.827644  	68.958178 
688.264522  	68.676618 
689.701400  	68.644704 
691.138278  	68.700199 
692.575156  	68.993548 
694.012034  	69.444714 
695.448912  	69.891859 
696.885790  	70.508699 
698.322668  	71.192632 
699.759546  	71.867073 
701.196424  	72.533369 
702.633301  	73.085007 
704.070179  	73.594327 
705.507057  	74.089764 
706.943935  	74.553399 
708.380813  	75.025729 
709.817691  	75.452601 
711.254569  	75.656951 
712.691447  	75.855261 
714.128325  	76.042385 
715.565203  	76.208464 
717.002081  	76.344616 
718.438959  	76.346466 
719.875837  	76.364760 
721.312714  	76.380215 
722.749592  	76.372973 
724.186470  	76.360514 
725.623348  	76.179302 
727.060226  	75.952812 
728.497104  	75.861600 
729.933982  	75.611793 
731.370860  	75.324899 
732.807738  	75.054771 
734.244616  	74.767996 
735.681494  	74.501135 
737.118372  	74.217253 
738.555249  	73.987507 
739.992127  	73.848389 
741.429005  	73.599791 
742.865883  	73.340926 
744.302761  	73.222790 
745.739639  	73.097516 
747.176517  	72.948651 
748.613395  	72.829707 
750.050273  	72.731268 
751.487151  	72.643145 
752.924029  	72.525470 
754.360907  	72.458149 
755.797784  	72.401916 
757.234662  	72.214054 
758.671540  	72.034262 
760.108418  	71.932950 
761.545296  	71.800404 
762.982174  	71.614166 
764.419052  	71.357242 
765.855930  	71.088905 
767.292808  	70.831663 
768.729686  	70.524992 
770.166564  	70.229268 
771.603442  	69.897502 
773.040319  	69.484406 
774.477197  	69.061156 
775.914075  	68.598394 
777.350953  	68.225373 
778.787831  	67.966790 
780.224709  	67.619171 
781.661587  	67.301692 
783.098465  	67.022771 
784.535343  	66.676220 
785.972221  	66.442498 
787.409099  	66.232048 
788.845977  	65.984577 
790.282854  	65.861775 
791.719732  	65.711666 
793.156610  	65.543889 
794.593488  	65.478604 
796.030366  	65.377070 
797.467244  	65.290808 
798.904122  	65.270137 
800.341000  	65.271242 
801.777878  	65.379233 
803.214756  	65.524731 
804.651634  	65.646043 
806.088512  	65.851026 
807.525389  	66.179360 
808.962267  	66.580486 
810.399145  	67.000902 
811.836023  	67.520649 
813.272901  	68.217928 
814.709779  	69.018166 
816.146657  	69.857043 
817.583535  	70.751716 
819.020413  	71.798467 
820.457291  	72.949805 
821.894169  	74.089481 
823.331047  	75.296938 
824.767924  	76.523189 
826.204802  	77.741300 
827.641680  	79.030388 
829.078558  	80.215920 
830.515436  	81.307656 
831.952314  	82.392003 
833.389192  	83.270781 
834.826070  	83.966019 
836.262948  	84.582346 
837.699826  	85.054901 
839.136704  	85.409336 
840.573582  	85.699500 
842.010459  	85.948395 
843.447337  	86.117349 
844.884215  	86.148961 
846.321093  	86.112612 
847.757971  	86.033318 
849.194849  	85.916098 
850.631727  	85.803664 
852.068605  	85.615262 
853.505483  	85.369276 
854.942361  	85.153955 
856.379239  	84.874864 
857.816117  	84.535685 
859.252994  	84.239141 
860.689872  	83.963696 
862.126750  	83.711226 
863.563628  	83.508246 
865.000506  	83.364486 
866.437384  	83.247440 
867.874262  	83.078459 
869.311140  	82.926966 
870.748018  	82.811327 
872.184896  	82.656645 
873.621774  	82.523617 
875.058652  	82.341493 
876.495529  	82.085282 
877.932407  	81.920252 
879.369285  	81.754987 
880.806163  	81.541737 
882.243041  	81.370295 
883.679919  	81.148443 
885.116797  	80.924115 
886.553675  	80.726260 
887.990553  	80.486444 
889.427431  	80.310488 
890.864309  	80.097725 
892.301187  	79.789510 
893.738064  	79.545831 
895.174942  	79.269656 
896.611820  	78.996402 
898.048698  	78.800395 
899.485576  	78.488902 
900.922454  	78.154752 
902.359332  	77.853301 
903.796210  	77.459040 
905.233088  	77.070340 
906.669966  	76.648393 
908.106844  	76.204247 
909.543722  	75.842232 
910.980599  	75.402488 
912.417477  	74.943440 
913.854355  	74.525828 
915.291233  	74.027470 
916.728111  	73.601846 
918.164989  	73.258461 
919.601867  	72.958866 
921.038745  	72.804695 
922.475623  	72.643489 
923.912501  	72.529347 
925.349379  	72.558531 
926.786257  	72.561743 
928.223134  	72.605503 
929.660012  	72.685778 
931.096890  	72.751095 
932.533768  	72.872285 
933.970646  	72.878161 
935.407524  	72.783587 
936.844402  	72.674115 
938.281280  	72.427484 
939.718158  	72.169379 
941.155036  	71.899132 
942.591914  	71.528377 
944.028792  	71.210292 
945.465670  	70.873863 
946.902547  	70.521765 
948.339425  	70.228406 
949.776303  	69.857328 
951.213181  	69.517130 
952.650059  	69.219846 
954.086937  	68.885230 
955.523815  	68.639006 
956.960693  	68.357547 
958.397571  	68.064090 
959.834449  	67.868682 
961.271327  	67.618133 
962.708205  	67.431953 
964.145082  	67.249566 
965.581960  	66.925619 
967.018838  	66.674369 
968.455716  	66.334122 
969.892594  	65.829926 
971.329472  	65.326342 
972.766350  	64.684919 
974.203228  	64.040753 
975.640106  	63.361807 
977.076984  	62.483507 
978.513862  	61.730147 
979.950740  	60.969705 
981.387617  	60.109528 
982.824495  	59.389686 
984.261373  	58.495050 
985.698251  	57.484590 
987.135129  	56.469552 
988.572007  	55.140248 
990.008885  	53.734148 
991.445763  	52.164912 
992.882641  	50.291251 
994.319519  	48.526918 
995.756397  	46.680338 
997.193275  	44.846586 
998.630152  	43.321874 
1000.067030  	41.801367 
1001.503908  	40.556301 
1002.940786  	39.527380 
1004.377664  	38.435873 
1005.814542  	37.683971 
1007.251420  	36.918034 
1008.688298  	36.035196 
1010.125176  	35.340354 
1011.562054  	34.378562 
1012.998932  	33.396000 
1014.435810  	32.502875 
1015.872687  	31.343450 
1017.309565  	30.369157 
1018.746443  	29.377072 
1020.183321  	28.270805 
1021.620199  	27.504759 
1023.057077  	26.651039 
1024.493955  	25.909727 
1025.930833  	25.481135 
1027.367711  	24.905470 
1028.804589  	24.566790 
1030.241467  	24.317087 
1031.678345  	23.977192 
1033.115222  	23.984634 
1034.552100  	23.902512 
1035.988978  	23.854447 
1037.425856  	24.071356 
1038.862734  	24.126048 
1040.299612  	24.430988 
1041.736490  	24.810974 
1043.173368  	24.976635 
1044.610246  	25.408020 
1046.047124  	25.713058 
1047.484002  	25.992313 
1048.920880  	26.481619 
1050.357757  	26.670107 
1051.794635  	27.027020 
1053.231513  	27.466604 
1054.668391  	27.616246 
1056.105269  	28.063970 
1057.542147  	28.430611 
1058.979025  	28.674421 
1060.415903  	29.199375 
1061.852781  	29.493039 
1063.289659  	29.861450 
1064.726537  	30.377984 
1066.163415  	30.687634 
1067.600292  	31.236475 
1069.037170  	31.666416 
1070.474048  	31.947502 
1071.910926  	32.530994 
1073.347804  	32.906422 
1074.784682  	33.302957 
1076.221560  	33.823255 
1077.658438  	34.085790 
1079.095316  	34.560941 
1080.532194  	34.981881 
1081.969072  	35.201692 
1083.405950  	35.667301 
1084.842827  	35.959066 
1086.279705  	36.235399 
1087.716583  	36.645036 
1089.153461  	36.837842 
1090.590339  	37.220679 
1092.027217  	37.577764 
1093.464095  	37.765466 
1094.900973  	38.235141 
1096.337851  	38.600562 
1097.774729  	38.988796 
1099.211607  	39.587450 
1100.648485  	39.992979 
1102.085362  	40.548812 
1103.522240  	41.168125 
1104.959118  	41.652863 
1106.395996  	42.331920 
1107.832874  	42.887806 
1109.269752  	43.417590 
1110.706630  	44.072092 
1112.143508  	44.480361 
1113.580386  	44.981525 
1115.017264  	45.522509 
1116.454142  	45.867133 
1117.891020  	46.350245 
1119.327897  	46.718221 
1120.764775  	47.029715 
1122.201653  	47.518686 
1123.638531  	47.854984 
1125.075409  	48.269663 
1126.512287  	48.747123 
1127.949165  	49.073670 
1129.386043  	49.570376 
1130.822921  	50.027786 
1132.259799  	50.440678 
1133.696677  	51.034901 
1135.133555  	51.498307 
1136.570432  	51.996898 
1138.007310  	52.588781 
1139.444188  	53.075319 
1140.881066  	53.701410 
1142.317944  	54.294570 
1143.754822  	54.806178 
1145.191700  	55.452730 
1146.628578  	56.003228 
1148.065456  	56.575268 
1149.502334  	57.215034 
1150.939212  	57.714706 
1152.376090  	58.274009 
1153.812967  	58.810512 
1155.249845  	59.277353 
1156.686723  	59.824920 
1158.123601  	60.255680 
1159.560479  	60.671127 
1160.997357  	61.134380 
1162.434235  	61.517996 
1163.871113  	62.022452 
1165.307991  	62.528768 
1166.744869  	62.976168 
1168.181747  	63.541855 
1169.618625  	64.033732 
1171.055502  	64.531868 
1172.492380  	65.113262 
1173.929258  	65.590999 
1175.366136  	66.096311 
1176.803014  	66.551410 
1178.239892  	66.891255 
1179.676770  	67.273254 
1181.113648  	67.551961 
1182.550526  	67.854166 
1183.987404  	68.294835 
1185.424282  	68.684269 
1186.861160  	69.218897 
1188.298038  	69.905499 
1189.734915  	70.622879 
1191.171793  	71.519718 
1192.608671  	72.441747 
1194.045549  	73.371071 
1195.482427  	74.397662 
1196.919305  	75.341049 
1198.356183  	76.278339 
1199.793061  	77.208656 
1201.229939  	78.012115 
1202.666817  	78.844389 
1204.103695  	79.650755 
1205.540573  	80.352246 
1206.977450  	81.062012 
1208.414328  	81.736425 
1209.851206  	82.386831 
1211.288084  	83.023329 
1212.724962  	83.586578 
1214.161840  	84.150464 
1215.598718  	84.694333 
1217.035596  	85.207399 
1218.472474  	85.739724 
1219.909352  	86.185664 
1221.346230  	86.565896 
1222.783108  	86.954583 
1224.219985  	87.292821 
1225.656863  	87.610687 
1227.093741  	87.880977 
1228.530619  	88.041834 
1229.967497  	88.147811 
1231.404375  	88.158773 
1232.841253  	88.061368 
1234.278131  	87.907458 
1235.715009  	87.687679 
1237.151887  	87.506684 
1238.588765  	87.421479 
1240.025643  	87.428981 
1241.462520  	87.613397 
1242.899398  	87.902463 
1244.336276  	88.227153 
1245.773154  	88.613021 
1247.210032  	88.976573 
1248.646910  	89.264377 
1250.083788  	89.486019 
1251.520666  	89.652893 
1252.957544  	89.761113 
1254.394422  	89.731765 
1255.831300  	89.589016 
1257.268178  	89.429675 
1258.705055  	89.280431 
1260.141933  	89.271620 
1261.578811  	89.480366 
1263.015689  	89.863811 
1264.452567  	90.441436 
1265.889445  	91.142817 
1267.326323  	91.919178 
1268.763201  	92.758722 
1270.200079  	93.522240 
1271.636957  	94.178713 
1273.073835  	94.757607 
1274.510713  	95.187917 
1275.947590  	95.530284 
1277.384468  	95.849055 
1278.821346  	96.072849 
1280.258224  	96.244605 
1281.695102  	96.396033 
1283.131980  	96.489550 
1284.568858  	96.581204 
1286.005736  	96.649437 
1287.442614  	96.668106 
1288.879492  	96.699481 
1290.316370  	96.702635 
1291.753248  	96.658048 
1293.190125  	96.589696 
1294.627003  	96.472900 
1296.063881  	96.350388 
1297.500759  	96.233703 
1298.937637  	96.085914 
1300.374515  	95.925097 
1301.811393  	95.767072 
1303.248271  	95.641349 
1304.685149  	95.584834 
1306.122027  	95.552301 
1307.558905  	95.557487 
1308.995783  	95.631665 
1310.432660  	95.773995 
1311.869538  	96.000030 
1313.306416  	96.277963 
1314.743294  	96.564103 
1316.180172  	96.853096 
1317.617050  	97.082880 
1319.053928  	97.247543 
1320.490806  	97.397497 
1321.927684  	97.502783 
1323.364562  	97.572182 
1324.801440  	97.603805 
1326.238318  	97.629443 
1327.675195  	97.609303 
1329.112073  	97.578742 
1330.548951  	97.553873 
1331.985829  	97.509989 
1333.422707  	97.447648 
1334.859585  	97.279151 
1336.296463  	97.086622 
1337.733341  	96.876141 
1339.170219  	96.659206 
1340.607097  	96.425387 
1342.043975  	96.229757 
1343.480853  	96.045110 
1344.917730  	95.968810 
1346.354608  	96.092523 
1347.791486  	96.338641 
1349.228364  	96.607243 
1350.665242  	96.903682 
1352.102120  	97.201324 
1353.538998  	97.394593 
1354.975876  	97.570351 
1356.412754  	97.726408 
1357.849632  	97.864967 
1359.286510  	97.901409 
1360.723388  	97.899452 
1362.160265  	97.899598 
1363.597143  	97.908654 
1365.034021  	97.902148 
1366.470899  	97.904423 
1367.907777  	97.887588 
1369.344655  	97.897755 
1370.781533  	97.937071 
1372.218411  	97.960962 
1373.655289  	97.949933 
1375.092167  	97.952961 
1376.529045  	97.963590 
1377.965923  	97.964242 
1379.402800  	97.947973 
1380.839678  	97.942119 
1382.276556  	97.889437 
1383.713434  	97.796546 
1385.150312  	97.720068 
1386.587190  	97.638209 
1388.024068  	97.554272 
1389.460946  	97.490461 
1390.897824  	97.383108 
1392.334702  	97.233806 
1393.771580  	97.122888 
1395.208458  	96.982236 
1396.645335  	96.857318 
1398.082213  	96.718975 
1399.519091  	96.509580 
1400.955969  	96.330383 
1402.392847  	96.150889 
1403.829725  	96.019511 
1405.266603  	95.943107 
1406.703481  	95.902958 
1408.140359  	95.884181 
1409.577237  	95.953195 
1411.014115  	96.068058 
1412.450993  	96.243084 
1413.887871  	96.376534 
1415.324748  	96.448693 
1416.761626  	96.517182 
1418.198504  	96.555124 
1419.635382  	96.586301 
1421.072260  	96.586033 
1422.509138  	96.524880 
1423.946016  	96.459482 
1425.382894  	96.414328 
1426.819772  	96.378894 
1428.256650  	96.319969 
1429.693528  	96.305060 
1431.130406  	96.368892 
1432.567283  	96.397557 
1434.004161  	96.372481 
1435.441039  	96.379559 
1436.877917  	96.331357 
1438.314795  	96.166220 
1439.751673  	95.986824 
1441.188551  	95.848389 
1442.625429  	95.814115 
1444.062307  	95.883496 
1445.499185  	96.044033 
1446.936063  	96.193639 
1448.372941  	96.304003 
1449.809818  	96.376503 
1451.246696  	96.369169 
1452.683574  	96.301264 
1454.120452  	96.295550 
1455.557330  	96.387576 
1456.994208  	96.649759 
1458.431086  	97.021200 
1459.867964  	97.226015 
1461.304842  	97.421409 
1462.741720  	97.570922 
1464.178598  	97.723440 
1465.615476  	97.902434 
1467.052353  	97.994925 
1468.489231  	98.037263 
1469.926109  	98.058178 
1471.362987  	98.069902 
1472.799865  	98.122641 
1474.236743  	98.201751 
1475.673621  	98.223263 
1477.110499  	98.232223 
1478.547377  	98.239697 
1479.984255  	98.231270 
1481.421133  	98.234396 
1482.858011  	98.274639 
1484.294888  	98.313945 
1485.731766  	98.327199 
1487.168644  	98.312477 
1488.605522  	98.292296 
1490.042400  	98.318353 
1491.479278  	98.392205 
1492.916156  	98.403240 
1494.353034  	98.413871 
1495.789912  	98.429845 
1497.226790  	98.426582 
1498.663668  	98.434739 
1500.100546  	98.448078 
1501.537423  	98.444328 
1502.974301  	98.443803 
1504.411179  	98.464874 
1505.848057  	98.454286 
1507.284935  	98.357860 
1508.721813  	98.431036 
1510.158691  	98.435774 
1511.595569  	98.431271 
1513.032447  	98.442068 
1514.469325  	98.442885 
1515.906203  	98.415001 
1517.343081  	98.434063 
1518.779958  	98.457310 
1520.216836  	98.451554 
1521.653714  	98.422620 
1523.090592  	98.435298 
1524.527470  	98.432665 
1525.964348  	98.425387 
1527.401226  	98.400903 
1528.838104  	98.409198 
1530.274982  	98.426497 
1531.711860  	98.420709 
1533.148738  	98.427269 
1534.585616  	98.478080 
1536.022493  	98.473401 
1537.459371  	98.495940 
1538.896249  	98.544232 
1540.333127  	98.507887 
1541.770005  	98.521488 
1543.206883  	98.528980 
1544.643761  	98.528436 
1546.080639  	98.540641 
1547.517517  	98.447951 
1548.954395  	98.433727 
1550.391273  	98.423379 
1551.828151  	98.404173 
1553.265028  	98.397678 
1554.701906  	98.395397 
1556.138784  	98.427231 
1557.575662  	98.485082 
1559.012540  	98.476748 
1560.449418  	98.502855 
1561.886296  	98.426929 
1563.323174  	98.377050 
1564.760052  	98.366777 
1566.196930  	98.350264 
1567.633808  	98.352349 
1569.070686  	98.359133 
1570.507563  	98.370333 
1571.944441  	98.373727 
1573.381319  	98.377753 
1574.818197  	98.407840 
1576.255075  	98.439258 
1577.691953  	98.397938 
1579.128831  	98.316784 
1580.565709  	98.269141 
1582.002587  	98.246683 
1583.439465  	98.238435 
1584.876343  	98.250005 
1586.313221  	98.249911 
1587.750098  	98.218158 
1589.186976  	98.051392 
1590.623854  	97.887500 
1592.060732  	97.740467 
1593.497610  	97.595731 
1594.934488  	97.447270 
1596.371366  	97.577210 
1597.808244  	97.699145 
1599.245122  	97.828743 
1600.682000  	97.761867 
1602.118878  	97.764332 
1603.555756  	97.773769 
1604.992633  	97.697596 
1606.429511  	97.594216 
1607.866389  	97.532341 
1609.303267  	97.484251 
1610.740145  	97.444150 
1612.177023  	97.412360 
1613.613901  	97.369185 
1615.050779  	97.340989 
1616.487657  	97.309469 
1617.924535  	97.265100 
1619.361413  	97.197027 
1620.798291  	97.177800 
1622.235168  	97.219318 
1623.672046  	97.247388 
1625.108924  	97.217555 
1626.545802  	97.185994 
1627.982680  	97.172656 
1629.419558  	97.142341 
1630.856436  	97.124219 
1632.293314  	97.169568 
1633.730192  	97.218573 
1635.167070  	97.182377 
1636.603948  	97.168506 
1638.040826  	97.246689 
1639.477703  	97.289606 
1640.914581  	97.354764 
1642.351459  	97.378128 
1643.788337  	97.395535 
1645.225215  	97.417700 
1646.662093  	97.381547 
1648.098971  	97.434572 
1649.535849  	97.518499 
1650.972727  	97.555351 
1652.409605  	97.599554 
1653.846483  	97.649324 
1655.283361  	97.691908 
1656.720239  	97.674428 
1658.157116  	97.723934 
1659.593994  	97.777735 
1661.030872  	97.818474 
1662.467750  	97.880972 
1663.904628  	97.934516 
1665.341506  	97.915760 
1666.778384  	97.901906 
1668.215262  	97.961005 
1669.652140  	98.065457 
1671.089018  	98.109787 
1672.525896  	98.074858 
1673.962774  	98.062785 
1675.399651  	98.089399 
1676.836529  	98.116626 
1678.273407  	98.113463 
1679.710285  	98.141793 
1681.147163  	98.138702 
1682.584041  	98.127567 
1684.020919  	98.130483 
1685.457797  	98.257885 
1686.894675  	98.298219 
1688.331553  	98.308518 
1689.768431  	98.335330 
1691.205309  	98.367041 
1692.642186  	98.395702 
1694.079064  	98.427952 
1695.515942  	98.472979 
1696.952820  	98.455658 
1698.389698  	98.448616 
1699.826576  	98.508742 
1701.263454  	98.540901 
1702.700332  	98.473703 
1704.137210  	98.463216 
1705.574088  	98.509528 
1707.010966  	98.518546 
1708.447844  	98.525834 
1709.884721  	98.544920 
1711.321599  	98.540953 
1712.758477  	98.548221 
1714.195355  	98.545747 
1715.632233  	98.543897 
1717.069111  	98.587633 
1718.505989  	98.636384 
1719.942867  	98.649847 
1721.379745  	98.642859 
1722.816623  	98.638132 
1724.253501  	98.624509 
1725.690379  	98.640320 
1727.127256  	98.681004 
1728.564134  	98.663420 
1730.001012  	98.610961 
1731.437890  	98.616776 
1732.874768  	98.662439 
1734.311646  	98.696670 
1735.748524  	98.727361 
1737.185402  	98.686750 
1738.622280  	98.688233 
1740.059158  	98.729101 
1741.496036  	98.723053 
1742.932914  	98.695305 
1744.369791  	98.679483 
1745.806669  	98.641805 
1747.243547  	98.635057 
1748.680425  	98.676493 
1750.117303  	98.728961 
1751.554181  	98.743097 
1752.991059  	98.714475 
1754.427937  	98.699494 
1755.864815  	98.716896 
1757.301693  	98.709791 
1758.738571  	98.695163 
1760.175449  	98.705658 
1761.612326  	98.712412 
1763.049204  	98.717234 
1764.486082  	98.744539 
1765.922960  	98.750174 
1767.359838  	98.748851 
1768.796716  	98.750034 
1770.233594  	98.764156 
1771.670472  	98.787528 
1773.107350  	98.761767 
1774.544228  	98.723363 
1775.981106  	98.733568 
1777.417984  	98.761982 
1778.854861  	98.744309 
1780.291739  	98.742291 
1781.728617  	98.764336 
1783.165495  	98.742336 
1784.602373  	98.757763 
1786.039251  	98.825389 
1787.476129  	98.850692 
1788.913007  	98.825857 
1790.349885  	98.770191 
1791.786763  	98.725679 
1793.223641  	98.768152 
1794.660519  	98.739154 
1796.097396  	98.653218 
1797.534274  	98.663634 
1798.971152  	98.704833 
1800.408030  	98.701517 
1801.844908  	98.700713 
1803.281786  	98.704085 
1804.718664  	98.723719 
1806.155542  	98.743841 
1807.592420  	98.718791 
1809.029298  	98.701374 
1810.466176  	98.698525 
1811.903054  	98.669071 
1813.339931  	98.657749 
1814.776809  	98.691030 
1816.213687  	98.749579 
1817.650565  	98.768655 
1819.087443  	98.751963 
1820.524321  	98.736194 
1821.961199  	98.741775 
1823.398077  	98.768412 
1824.834955  	98.748707 
1826.271833  	98.712279 
1827.708711  	98.723580 
1829.145589  	98.753388 
1830.582466  	98.757096 
1832.019344  	98.792625 
1833.456222  	98.807816 
1834.893100  	98.800088 
1836.329978  	98.810000 
1837.766856  	98.802475 
1839.203734  	98.778548 
1840.640612  	98.771649 
1842.077490  	98.763817 
1843.514368  	98.778983 
1844.951246  	98.775982 
1846.388124  	98.703128 
1847.825001  	98.665920 
1849.261879  	98.678040 
1850.698757  	98.679772 
1852.135635  	98.656208 
1853.572513  	98.651420 
1855.009391  	98.688769 
1856.446269  	98.730824 
1857.883147  	98.723401 
1859.320025  	98.714047 
1860.756903  	98.695367 
1862.193781  	98.689870 
1863.630659  	98.697811 
1865.067536  	98.699210 
1866.504414  	98.712067 
1867.941292  	98.742246 
1869.378170  	98.717398 
1870.815048  	98.681858 
1872.251926  	98.687027 
1873.688804  	98.752891 
1875.125682  	98.773025 
1876.562560  	98.707162 
1877.999438  	98.683995 
1879.436316  	98.712838 
1880.873194  	98.733856 
1882.310072  	98.783274 
1883.746949  	98.842409 
1885.183827  	98.911004 
1886.620705  	98.941536 
1888.057583  	98.843447 
1889.494461  	98.789236 
1890.931339  	98.878115 
1892.368217  	98.852042 
1893.805095  	98.818949 
1895.241973  	98.896190 
1896.678851  	98.956574 
1898.115729  	98.974328 
1899.552607  	98.894879 
1900.989484  	98.826428 
1902.426362  	98.899621 
1903.863240  	98.947550 
1905.300118  	98.871207 
1906.736996  	98.833855 
1908.173874  	98.851982 
1909.610752  	98.879199 
1911.047630  	98.924998 
1912.484508  	99.035578 
1913.921386  	99.130026 
1915.358264  	99.110882 
1916.795142  	99.077534 
1918.232019  	99.071763 
1919.668897  	99.069439 
1921.105775  	99.081246 
1922.542653  	99.109602 
1923.979531  	99.149890 
1925.416409  	99.236798 
1926.853287  	99.205355 
1928.290165  	99.132571 
1929.727043  	99.184110 
1931.163921  	99.096967 
1932.600799  	99.080813 
1934.037677  	99.264935 
1935.474554  	99.230287 
1936.911432  	99.096592 
1938.348310  	99.089105 
1939.785188  	99.105711 
1941.222066  	99.172556 
1942.658944  	99.147446 
1944.095822  	99.132040 
1945.532700  	99.361235 
1946.969578  	99.389423 
1948.406456  	99.348300 
1949.843334  	99.312848 
1951.280212  	99.330508 
1952.717089  	99.405500 
1954.153967  	99.448461 
1955.590845  	99.383054 
1957.027723  	99.478803 
1958.464601  	99.590532 
1959.901479  	99.423532 
1961.338357  	99.388567 
1962.775235  	99.602984 
1964.212113  	99.614856 
1965.648991  	99.515624 
1967.085869  	99.719731 
1968.522747  	100.089833 
1969.959624  	100.076756 
1971.396502  	99.680850 
1972.833380  	99.418461 
1974.270258  	99.516560 
1975.707136  	99.694360 
1977.144014  	99.829776 
1978.580892  	99.909901 
1980.017770  	99.812900 
1981.454648  	99.727608 
1982.891526  	99.788677 
1984.328404  	99.911919 
1985.765282  	100.002019 
1987.202159  	99.867053 
1988.639037  	99.569041 
1990.075915  	99.436345 
1991.512793  	99.567411 
1992.949671  	99.758931 
1994.386549  	99.675633 
1995.823427  	99.430881 
1997.260305  	99.511327 
1998.697183  	99.936431 
2000.134061  	100.076709 
2001.570939  	99.988142 
2003.007817  	99.820200 
2004.444694  	99.716067 
2005.881572  	99.877486 
2007.318450  	99.987503 
2008.755328  	99.913255 
2010.192206  	99.864450 
2011.629084  	99.781650 
2013.065962  	99.750739 
2014.502840  	99.791637 
2015.939718  	99.865663 
2017.376596  	100.124599 
2018.813474  	100.217263 
2020.250352  	100.142451 
2021.687229  	100.322157 
2023.124107  	100.465388 
2024.560985  	100.378117 
2025.997863  	100.238894 
2027.434741  	100.071289 
2028.871619  	99.976315 
2030.308497  	100.040461 
2031.745375  	100.166095 
2033.182253  	100.151746 
2034.619131  	99.758023 
2036.056009  	99.500941 
2037.492887  	99.799880 
2038.929764  	99.879127 
2040.366642  	99.545074 
2041.803520  	99.438167 
2043.240398  	99.482315 
2044.677276  	99.490734 
2046.114154  	99.643748 
2047.551032  	99.802463 
2048.987910  	99.749631 
2050.424788  	99.646815 
2051.861666  	99.641866 
2053.298544  	99.542668 
2054.735422  	99.353358 
2056.172299  	99.452951 
2057.609177  	99.666719 
2059.046055  	99.555146 
2060.482933  	99.413064 
2061.919811  	99.535308 
2063.356689  	99.600434 
2064.793567  	99.496331 
2066.230445  	99.466731 
2067.667323  	99.470998 
2069.104201  	99.371683 
2070.541079  	99.412899 
2071.977957  	99.636466 
2073.414834  	99.609933 
2074.851712  	99.464237 
2076.288590  	99.578223 
2077.725468  	99.604417 
2079.162346  	99.430800 
2080.599224  	99.521549 
2082.036102  	99.746797 
2083.472980  	99.699712 
2084.909858  	99.486539 
2086.346736  	99.325587 
2087.783614  	99.348792 
2089.220492  	99.579527 
2090.657369  	99.753248 
2092.094247  	99.700368 
2093.531125  	99.629844 
2094.968003  	99.600231 
2096.404881  	99.494315 
2097.841759  	99.374023 
2099.278637  	99.321090 
2100.715515  	99.399792 
2102.152393  	99.654336 
2103.589271  	99.780901 
2105.026149  	99.572964 
2106.463027  	99.368398 
2107.899904  	99.384114 
2109.336782  	99.429712 
2110.773660  	99.446497 
2112.210538  	99.446849 
2113.647416  	99.421261 
2115.084294  	99.521786 
2116.521172  	99.680770 
2117.958050  	99.607211 
2119.394928  	99.474664 
2120.831806  	99.526492 
2122.268684  	99.498706 
2123.705562  	99.417438 
2125.142440  	99.572152 
2126.579317  	99.723197 
2128.016195  	99.714374 
2129.453073  	99.715945 
2130.889951  	99.730180 
2132.326829  	99.835087 
2133.763707  	99.947009 
2135.200585  	99.869369 
2136.637463  	99.821166 
2138.074341  	99.743266 
2139.511219  	99.634236 
2140.948097  	99.837638 
2142.384975  	99.909423 
2143.821852  	99.710362 
2145.258730  	99.868040 
2146.695608  	100.044408 
2148.132486  	100.017855 
2149.569364  	100.281338 
2151.006242  	100.400020 
2152.443120  	100.011511 
2153.879998  	99.764827 
2155.316876  	99.893409 
2156.753754  	100.114595 
2158.190632  	100.071841 
2159.627510  	99.701725 
2161.064387  	99.620104 
2162.501265  	99.712193 
2163.938143  	99.558385 
2165.375021  	99.591780 
2166.811899  	99.747771 
2168.248777  	99.525139 
2169.685655  	99.365957 
2171.122533  	99.480899 
2172.559411  	99.419917 
2173.996289  	99.295753 
2175.433167  	99.273591 
2176.870045  	99.224595 
2178.306922  	99.361318 
2179.743800  	99.535514 
2181.180678  	99.335381 
2182.617556  	99.259905 
2184.054434  	99.604150 
2185.491312  	99.631933 
2186.928190  	99.273682 
2188.365068  	99.265112 
2189.801946  	99.501135 
2191.238824  	99.411203 
2192.675702  	99.315815 
2194.112580  	99.456443 
2195.549457  	99.291324 
2196.986335  	98.993726 
2198.423213  	99.173114 
2199.860091  	99.486431 
2201.296969  	99.488747 
2202.733847  	99.400003 
2204.170725  	99.432200 
2205.607603  	99.536109 
2207.044481  	99.500047 
2208.481359  	99.377203 
2209.918237  	99.396710 
2211.355115  	99.345783 
2212.791992  	99.188701 
2214.228870  	99.324369 
2215.665748  	99.587896 
2217.102626  	99.495554 
2218.539504  	99.243312 
2219.976382  	99.275670 
2221.413260  	99.378435 
2222.850138  	99.306477 
2224.287016  	99.318964 
2225.723894  	99.298464 
2227.160772  	99.122919 
2228.597650  	99.244824 
2230.034527  	99.411212 
2231.471405  	99.244822 
2232.908283  	99.319832 
2234.345161  	99.563777 
2235.782039  	99.448642 
2237.218917  	99.267545 
2238.655795  	99.208619 
2240.092673  	99.188171 
2241.529551  	99.214717 
2242.966429  	99.177079 
2244.403307  	99.208623 
2245.840185  	99.349708 
2247.277062  	99.346518 
2248.713940  	99.260566 
2250.150818  	99.180827 
2251.587696  	99.172314 
2253.024574  	99.310298 
2254.461452  	99.353597 
2255.898330  	99.232575 
2257.335208  	99.129053 
2258.772086  	99.147371 
2260.208964  	99.346777 
2261.645842  	99.442308 
2263.082720  	99.313560 
2264.519597  	99.344426 
2265.956475  	99.438811 
2267.393353  	99.314089 
2268.830231  	99.213952 
2270.267109  	99.244177 
2271.703987  	99.242036 
2273.140865  	99.185471 
2274.577743  	99.158238 
2276.014621  	99.227614 
2277.451499  	99.302575 
2278.888377  	99.293882 
2280.325255  	99.280603 
2281.762132  	99.290547 
2283.199010  	99.249295 
2284.635888  	99.137761 
2286.072766  	99.060354 
2287.509644  	99.060622 
2288.946522  	99.071901 
2290.383400  	99.144269 
2291.820278  	99.237447 
2293.257156  	99.210075 
2294.694034  	99.209458 
2296.130912  	99.263261 
2297.567790  	99.193547 
2299.004667  	99.142210 
2300.441545  	99.190974 
2301.878423  	99.171076 
2303.315301  	99.119780 
2304.752179  	99.104444 
2306.189057  	99.087019 
2307.625935  	99.051883 
2309.062813  	98.977512 
2310.499691  	98.938440 
2311.936569  	98.984699 
2313.373447  	98.979309 
2314.810325  	98.893433 
2316.247202  	98.835143 
2317.684080  	98.829697 
2319.120958  	98.830619 
2320.557836  	98.822725 
2321.994714  	98.806857 
2323.431592  	98.746293 
2324.868470  	98.761808 
2326.305348  	98.929651 
2327.742226  	98.999934 
2329.179104  	98.952488 
2330.615982  	99.052490 
2332.052860  	99.166550 
2333.489737  	99.140892 
2334.926615  	99.163900 
2336.363493  	99.203252 
2337.800371  	99.136418 
2339.237249  	99.086545 
2340.674127  	99.124604 
2342.111005  	99.125062 
2343.547883  	99.032978 
2344.984761  	98.968289 
2346.421639  	98.966027 
2347.858517  	98.946697 
2349.295395  	98.911747 
2350.732273  	98.892513 
2352.169150  	98.911159 
2353.606028  	98.978955 
2355.042906  	99.005477 
2356.479784  	99.009756 
2357.916662  	99.023287 
2359.353540  	98.993418 
2360.790418  	98.994057 
2362.227296  	99.036903 
2363.664174  	98.985270 
2365.101052  	98.955034 
2366.537930  	99.009516 
2367.974808  	99.039933 
2369.411685  	99.065658 
2370.848563  	99.110110 
2372.285441  	99.143549 
2373.722319  	99.140399 
2375.159197  	99.102488 
2376.596075  	99.085574 
2378.032953  	99.083709 
2379.469831  	99.101487 
2380.906709  	99.159113 
2382.343587  	99.188394 
2383.780465  	99.160179 
2385.217343  	99.166127 
2386.654220  	99.223951 
2388.091098  	99.251451 
2389.527976  	99.250924 
2390.964854  	99.226347 
2392.401732  	99.179642 
2393.838610  	99.138716 
2395.275488  	99.132156 
2396.712366  	99.145713 
2398.149244  	99.138600 
2399.586122  	99.155232 
2401.023000  	99.211014 
2402.459878  	99.201671 
2403.896755  	99.119083 
2405.333633  	99.077848 
2406.770511  	99.106641 
2408.207389  	99.138509 
2409.644267  	99.173991 
2411.081145  	99.255136 
2412.518023  	99.299911 
2413.954901  	99.260317 
2415.391779  	99.241267 
2416.828657  	99.271193 
2418.265535  	99.283986 
2419.702413  	99.263246 
2421.139290  	99.246085 
2422.576168  	99.290461 
2424.013046  	99.358731 
2425.449924  	99.345523 
2426.886802  	99.247819 
2428.323680  	99.161232 
2429.760558  	99.167863 
2431.197436  	99.191219 
2432.634314  	99.118208 
2434.071192  	99.069446 
2435.508070  	99.122668 
2436.944948  	99.146847 
2438.381825  	99.116993 
2439.818703  	99.095745 
2441.255581  	99.118018 
2442.692459  	99.160415 
2444.129337  	99.113404 
2445.566215  	99.035896 
2447.003093  	99.060276 
2448.439971  	99.103720 
2449.876849  	99.123720 
2451.313727  	99.166724 
2452.750605  	99.186407 
2454.187483  	99.174461 
2455.624360  	99.169751 
2457.061238  	99.179194 
2458.498116  	99.189423 
2459.934994  	99.167878 
2461.371872  	99.154276 
2462.808750  	99.178056 
2464.245628  	99.162243 
2465.682506  	99.119478 
2467.119384  	99.115462 
2468.556262  	99.114859 
2469.993140  	99.098832 
2471.430018  	99.075437 
2472.866895  	99.045021 
2474.303773  	99.059248 
2475.740651  	99.108853 
2477.177529  	99.118431 
2478.614407  	99.117283 
2480.051285  	99.137558 
2481.488163  	99.113013 
2482.925041  	99.065255 
2484.361919  	99.074394 
2485.798797  	99.112362 
2487.235675  	99.121074 
2488.672553  	99.075001 
2490.109430  	99.014554 
2491.546308  	99.023216 
2492.983186  	99.044375 
2494.420064  	99.008692 
2495.856942  	98.988150 
2497.293820  	98.969840 
2498.730698  	98.936111 
2500.167576  	98.980720 
2501.604454  	99.035395 
2503.041332  	99.003116 
2504.478210  	98.990435 
2505.915088  	99.043360 
2507.351965  	99.065116 
2508.788843  	99.019815 
2510.225721  	98.946357 
2511.662599  	98.882002 
2513.099477  	98.861660 
2514.536355  	98.882883 
2515.973233  	98.887473 
2517.410111  	98.865070 
2518.846989  	98.840028 
2520.283867  	98.789457 
2521.720745  	98.752757 
2523.157623  	98.760025 
2524.594500  	98.733332 
2526.031378  	98.687093 
2527.468256  	98.667989 
2528.905134  	98.658454 
2530.342012  	98.699685 
2531.778890  	98.742379 
2533.215768  	98.692300 
2534.652646  	98.630926 
2536.089524  	98.633765 
2537.526402  	98.669477 
2538.963280  	98.671637 
2540.400158  	98.594294 
2541.837035  	98.486300 
2543.273913  	98.405156 
2544.710791  	98.400865 
2546.147669  	98.442398 
2547.584547  	98.386170 
2549.021425  	98.339171 
2550.458303  	98.404566 
2551.895181  	98.369734 
2553.332059  	98.298400 
2554.768937  	98.345789 
2556.205815  	98.323733 
2557.642693  	98.261057 
2559.079570  	98.312204 
2560.516448  	98.365038 
2561.953326  	98.373152 
2563.390204  	98.389808 
2564.827082  	98.428492 
2566.263960  	98.464969 
2567.700838  	98.450758 
2569.137716  	98.449232 
2570.574594  	98.472571 
2572.011472  	98.467229 
2573.448350  	98.539581 
2574.885228  	98.660713 
2576.322105  	98.663780 
2577.758983  	98.620519 
2579.195861  	98.658606 
2580.632739  	98.726980 
2582.069617  	98.725755 
2583.506495  	98.709346 
2584.943373  	98.786620 
2586.380251  	98.836935 
2587.817129  	98.787584 
2589.254007  	98.779932 
2590.690885  	98.794901 
2592.127763  	98.790247 
2593.564641  	98.820642 
2595.001518  	98.809627 
2596.438396  	98.779021 
2597.875274  	98.820678 
2599.312152  	98.853975 
2600.749030  	98.879499 
2602.185908  	98.922168 
2603.622786  	98.889363 
2605.059664  	98.842207 
2606.496542  	98.862149 
2607.933420  	98.858669 
2609.370298  	98.824081 
2610.807176  	98.822651 
2612.244053  	98.824878 
2613.680931  	98.826703 
2615.117809  	98.850401 
2616.554687  	98.840071 
2617.991565  	98.809230 
2619.428443  	98.845357 
2620.865321  	98.881114 
2622.302199  	98.833666 
2623.739077  	98.802107 
2625.175955  	98.838903 
2626.612833  	98.860466 
2628.049711  	98.837513 
2629.486588  	98.824512 
2630.923466  	98.852897 
2632.360344  	98.867524 
2633.797222  	98.832630 
2635.234100  	98.810870 
2636.670978  	98.810956 
2638.107856  	98.802814 
2639.544734  	98.819146 
2640.981612  	98.826362 
2642.418490  	98.789180 
2643.855368  	98.785366 
2645.292246  	98.815388 
2646.729123  	98.807338 
2648.166001  	98.778522 
2649.602879  	98.773442 
2651.039757  	98.812900 
2652.476635  	98.866206 
2653.913513  	98.858935 
2655.350391  	98.828276 
2656.787269  	98.843016 
2658.224147  	98.843178 
2659.661025  	98.818939 
2661.097903  	98.834667 
2662.534781  	98.855648 
2663.971658  	98.855954 
2665.408536  	98.861689 
2666.845414  	98.853354 
2668.282292  	98.848731 
2669.719170  	98.868976 
2671.156048  	98.866450 
2672.592926  	98.854665 
2674.029804  	98.855157 
2675.466682  	98.820431 
2676.903560  	98.787959 
2678.340438  	98.820958 
2679.777316  	98.850260 
2681.214193  	98.820755 
2682.651071  	98.805976 
2684.087949  	98.849376 
2685.524827  	98.879031 
2686.961705  	98.856524 
2688.398583  	98.833562 
2689.835461  	98.837720 
2691.272339  	98.860946 
2692.709217  	98.885449 
2694.146095  	98.881133 
2695.582973  	98.865489 
2697.019851  	98.868935 
2698.456728  	98.874726 
2699.893606  	98.869246 
2701.330484  	98.850913 
2702.767362  	98.832843 
2704.204240  	98.845917 
2705.641118  	98.874880 
2707.077996  	98.868985 
2708.514874  	98.819375 
2709.951752  	98.784632 
2711.388630  	98.803094 
2712.825508  	98.820173 
2714.262386  	98.809026 
2715.699263  	98.803348 
2717.136141  	98.806561 
2718.573019  	98.835593 
2720.009897  	98.875107 
2721.446775  	98.865933 
2722.883653  	98.833578 
2724.320531  	98.793692 
2725.757409  	98.746784 
2727.194287  	98.755025 
2728.631165  	98.782774 
2730.068043  	98.787003 
2731.504921  	98.813558 
2732.941798  	98.814996 
2734.378676  	98.778511 
2735.815554  	98.776654 
2737.252432  	98.777422 
2738.689310  	98.756924 
2740.126188  	98.734987 
2741.563066  	98.712071 
2742.999944  	98.725597 
2744.436822  	98.740964 
2745.873700  	98.716427 
2747.310578  	98.719402 
2748.747456  	98.732948 
2750.184333  	98.716998 
2751.621211  	98.722376 
2753.058089  	98.724878 
2754.494967  	98.701062 
2755.931845  	98.703015 
2757.368723  	98.706829 
2758.805601  	98.676615 
2760.242479  	98.662785 
2761.679357  	98.690469 
2763.116235  	98.702581 
2764.553113  	98.662686 
2765.989991  	98.619609 
2767.426868  	98.614928 
2768.863746  	98.625545 
2770.300624  	98.616204 
2771.737502  	98.587280 
2773.174380  	98.591069 
2774.611258  	98.627988 
2776.048136  	98.617695 
2777.485014  	98.574803 
2778.921892  	98.563617 
2780.358770  	98.554337 
2781.795648  	98.537039 
2783.232526  	98.538002 
2784.669403  	98.524800 
2786.106281  	98.487992 
2787.543159  	98.464664 
2788.980037  	98.451748 
2790.416915  	98.434924 
2791.853793  	98.430678 
2793.290671  	98.433494 
2794.727549  	98.415436 
2796.164427  	98.383053 
2797.601305  	98.353768 
2799.038183  	98.337718 
2800.475061  	98.355566 
2801.911938  	98.386192 
2803.348816  	98.383253 
2804.785694  	98.359618 
2806.222572  	98.344332 
2807.659450  	98.335593 
2809.096328  	98.343961 
2810.533206  	98.372294 
2811.970084  	98.373543 
2813.406962  	98.336873 
2814.843840  	98.325397 
2816.280718  	98.333243 
2817.717596  	98.315496 
2819.154474  	98.326330 
2820.591351  	98.366623 
2822.028229  	98.343613 
2823.465107  	98.276496 
2824.901985  	98.228483 
2826.338863  	98.183376 
2827.775741  	98.124569 
2829.212619  	98.067236 
2830.649497  	98.035856 
2832.086375  	98.013282 
2833.523253  	97.947784 
2834.960131  	97.860021 
2836.397009  	97.796969 
2837.833886  	97.746458 
2839.270764  	97.680901 
2840.707642  	97.597722 
2842.144520  	97.520435 
2843.581398  	97.439362 
2845.018276  	97.343811 
2846.455154  	97.274523 
2847.892032  	97.202275 
2849.328910  	97.126446 
2850.765788  	97.119154 
2852.202666  	97.067994 
2853.639544  	96.931434 
2855.076421  	96.881310 
2856.513299  	96.856627 
2857.950177  	96.763679 
2859.387055  	96.736529 
2860.823933  	96.746968 
2862.260811  	96.692879 
2863.697689  	96.654941 
2865.134567  	96.671945 
2866.571445  	96.692907 
2868.008323  	96.715616 
2869.445201  	96.755233 
2870.882079  	96.775598 
2872.318956  	96.766081 
2873.755834  	96.787096 
2875.192712  	96.801860 
2876.629590  	96.733270 
2878.066468  	96.651943 
2879.503346  	96.595539 
2880.940224  	96.496379 
2882.377102  	96.356511 
2883.813980  	96.216696 
2885.250858  	96.098179 
2886.687736  	96.022716 
2888.124614  	95.998066 
2889.561491  	96.006062 
2890.998369  	96.003271 
2892.435247  	95.999161 
2893.872125  	96.019635 
2895.309003  	96.038378 
2896.745881  	96.077073 
2898.182759  	96.139017 
2899.619637  	96.161773 
2901.056515  	96.146867 
2902.493393  	96.101020 
2903.930271  	96.015188 
2905.367149  	95.912613 
2906.804026  	95.782157 
2908.240904  	95.625658 
2909.677782  	95.471130 
2911.114660  	95.322776 
2912.551538  	95.189341 
2913.988416  	95.035176 
2915.425294  	94.847032 
2916.862172  	94.692948 
2918.299050  	94.573367 
2919.735928  	94.451299 
2921.172806  	94.317635 
2922.609684  	94.169187 
2924.046561  	94.020780 
2925.483439  	93.844782 
2926.920317  	93.672296 
2928.357195  	93.578781 
2929.794073  	93.500752 
2931.230951  	93.434453 
2932.667829  	93.457243 
2934.104707  	93.554795 
2935.541585  	93.711643 
2936.978463  	93.889988 
2938.415341  	94.129184 
2939.852219  	94.472476 
2941.289096  	94.746949 
2942.725974  	94.975062 
2944.162852  	95.296700 
2945.599730  	95.555384 
2947.036608  	95.706536 
2948.473486  	95.860947 
2949.910364  	95.985113 
2951.347242  	96.046736 
2952.784120  	96.015777 
2954.220998  	95.937314 
2955.657876  	95.954959 
2957.094754  	96.026952 
2958.531631  	96.062204 
2959.968509  	96.068291 
2961.405387  	96.072657 
2962.842265  	96.142718 
2964.279143  	96.233683 
2965.716021  	96.286299 
2967.152899  	96.361162 
2968.589777  	96.424947 
2970.026655  	96.473486 
2971.463533  	96.542273 
2972.900411  	96.545853 
2974.337289  	96.539345 
2975.774166  	96.624491 
2977.211044  	96.723272 
2978.647922  	96.802936 
2980.084800  	96.886124 
2981.521678  	96.969483 
2982.958556  	97.044361 
2984.395434  	97.095077 
2985.832312  	97.169853 
2987.269190  	97.263621 
2988.706068  	97.320855 
2990.142946  	97.388578 
2991.579824  	97.456664 
2993.016701  	97.488700 
2994.453579  	97.507642 
2995.890457  	97.477573 
2997.327335  	97.466967 
2998.764213  	97.544050 
3000.201091  	97.573147 
3001.637969  	97.562059 
3003.074847  	97.606513 
3004.511725  	97.628005 
3005.948603  	97.615000 
3007.385481  	97.609836 
3008.822359  	97.610083 
3010.259236  	97.665911 
3011.696114  	97.712318 
3013.132992  	97.649851 
3014.569870  	97.594123 
3016.006748  	97.619505 
3017.443626  	97.637219 
3018.880504  	97.624481 
3020.317382  	97.608704 
3021.754260  	97.599122 
3023.191138  	97.626510 
3024.628016  	97.658901 
3026.064894  	97.645854 
3027.501771  	97.630999 
3028.938649  	97.612414 
3030.375527  	97.569587 
3031.812405  	97.561933 
3033.249283  	97.543267 
3034.686161  	97.485330 
3036.123039  	97.508050 
3037.559917  	97.562711 
3038.996795  	97.566176 
3040.433673  	97.608657 
3041.870551  	97.642613 
3043.307429  	97.583364 
3044.744306  	97.535831 
3046.181184  	97.546479 
3047.618062  	97.552993 
3049.054940  	97.533207 
3050.491818  	97.509745 
3051.928696  	97.498720 
3053.365574  	97.481758 
3054.802452  	97.480502 
3056.239330  	97.501002 
3057.676208  	97.478981 
3059.113086  	97.451190 
3060.549964  	97.464693 
3061.986842  	97.471688 
3063.423719  	97.474576 
3064.860597  	97.435434 
3066.297475  	97.322412 
3067.734353  	97.280585 
3069.171231  	97.337793 
3070.608109  	97.363081 
3072.044987  	97.366712 
3073.481865  	97.378957 
3074.918743  	97.358893 
3076.355621  	97.353729 
3077.792499  	97.381922 
3079.229377  	97.360796 
3080.666254  	97.300634 
3082.103132  	97.274880 
3083.540010  	97.293494 
3084.976888  	97.326412 
3086.413766  	97.295759 
3087.850644  	97.210469 
3089.287522  	97.207216 
3090.724400  	97.247726 
3092.161278  	97.220328 
3093.598156  	97.189800 
3095.035034  	97.174030 
3096.471912  	97.163051 
3097.908789  	97.204911 
3099.345667  	97.218906 
3100.782545  	97.186448 
3102.219423  	97.195882 
3103.656301  	97.194274 
3105.093179  	97.158382 
3106.530057  	97.146934 
3107.966935  	97.130928 
3109.403813  	97.096069 
3110.840691  	97.094129 
3112.277569  	97.125110 
3113.714447  	97.093823 
3115.151324  	97.011096 
3116.588202  	97.020570 
3118.025080  	97.041076 
3119.461958  	96.975305 
3120.898836  	96.975046 
3122.335714  	96.998051 
3123.772592  	96.934255 
3125.209470  	96.904224 
3126.646348  	96.917596 
3128.083226  	96.947732 
3129.520104  	97.009209 
3130.956982  	96.982859 
3132.393859  	96.870330 
3133.830737  	96.795380 
3135.267615  	96.808445 
3136.704493  	96.889881 
3138.141371  	96.904668 
3139.578249  	96.862937 
3141.015127  	96.907200 
3142.452005  	96.923293 
3143.888883  	96.837867 
3145.325761  	96.803739 
3146.762639  	96.837796 
3148.199517  	96.845379 
3149.636394  	96.792966 
3151.073272  	96.733860 
3152.510150  	96.730032 
3153.947028  	96.746086 
3155.383906  	96.774115 
3156.820784  	96.809922 
3158.257662  	96.794278 
3159.694540  	96.760756 
3161.131418  	96.727138 
3162.568296  	96.672610 
3164.005174  	96.648124 
3165.442052  	96.633105 
3166.878929  	96.619725 
3168.315807  	96.659705 
3169.752685  	96.668013 
3171.189563  	96.596436 
3172.626441  	96.542648 
3174.063319  	96.531252 
3175.500197  	96.521184 
3176.937075  	96.511775 
3178.373953  	96.502839 
3179.810831  	96.470022 
3181.247709  	96.451946 
3182.684587  	96.497093 
3184.121464  	96.518026 
3185.558342  	96.470653 
3186.995220  	96.431077 
3188.432098  	96.382449 
3189.868976  	96.317164 
3191.305854  	96.314358 
3192.742732  	96.345439 
3194.179610  	96.336755 
3195.616488  	96.311086 
3197.053366  	96.297448 
3198.490244  	96.249612 
3199.927122  	96.201098 
3201.363999  	96.250196 
3202.800877  	96.277084 
3204.237755  	96.198180 
3205.674633  	96.186201 
3207.111511  	96.226214 
3208.548389  	96.227222 
3209.985267  	96.283931 
3211.422145  	96.308665 
3212.859023  	96.194831 
3214.295901  	96.106899 
3215.732779  	96.149410 
3217.169657  	96.210899 
3218.606534  	96.162189 
3220.043412  	96.078934 
3221.480290  	96.100987 
3222.917168  	96.132731 
3224.354046  	96.115363 
3225.790924  	96.129573 
3227.227802  	96.131581 
3228.664680  	96.076548 
3230.101558  	96.002745 
3231.538436  	95.955331 
3232.975314  	95.947089 
3234.412192  	95.918464 
3235.849069  	95.906832 
3237.285947  	95.956221 
3238.722825  	95.977385 
3240.159703  	95.979515 
3241.596581  	95.951876 
3243.033459  	95.849342 
3244.470337  	95.811774 
3245.907215  	95.879093 
3247.344093  	95.928236 
3248.780971  	95.934286 
3250.217849  	95.942319 
3251.654727  	95.974925 
3253.091604  	95.956907 
3254.528482  	95.879782 
3255.965360  	95.853392 
3257.402238  	95.856678 
3258.839116  	95.891520 
3260.275994  	95.972540 
3261.712872  	95.987957 
3263.149750  	95.961028 
3264.586628  	95.917107 
3266.023506  	95.856399 
3267.460384  	95.872000 
3268.897262  	95.858641 
3270.334139  	95.806893 
3271.771017  	95.859229 
3273.207895  	95.873545 
3274.644773  	95.821410 
3276.081651  	95.769988 
3277.518529  	95.644627 
3278.955407  	95.605711 
3280.392285  	95.674124 
3281.829163  	95.678718 
3283.266041  	95.720355 
3284.702919  	95.774538 
3286.139797  	95.781915 
3287.576674  	95.852507 
3289.013552  	95.849799 
3290.450430  	95.731390 
3291.887308  	95.695697 
3293.324186  	95.719062 
3294.761064  	95.716959 
3296.197942  	95.702110 
3297.634820  	95.678560 
3299.071698  	95.649314 
3300.508576  	95.611570 
3301.945454  	95.583407 
3303.382332  	95.560286 
3304.819210  	95.539897 
3306.256087  	95.535604 
3307.692965  	95.548367 
3309.129843  	95.643704 
3310.566721  	95.684324 
3312.003599  	95.552701 
3313.440477  	95.562264 
3314.877355  	95.673637 
3316.314233  	95.570821 
3317.751111  	95.497427 
3319.187989  	95.558819 
3320.624867  	95.542519 
3322.061745  	95.516090 
3323.498622  	95.498380 
3324.935500  	95.473900 
3326.372378  	95.492032 
3327.809256  	95.447617 
3329.246134  	95.397427 
3330.683012  	95.423899 
3332.119890  	95.423118 
3333.556768  	95.422622 
3334.993646  	95.455309 
3336.430524  	95.459577 
3337.867402  	95.408222 
3339.304280  	95.330171 
3340.741157  	95.320547 
3342.178035  	95.311151 
3343.614913  	95.233859 
3345.051791  	95.232727 
3346.488669  	95.255886 
3347.925547  	95.246956 
3349.362425  	95.341739 
3350.799303  	95.417490 
3352.236181  	95.335197 
3353.673059  	95.254198 
3355.109937  	95.287784 
3356.546815  	95.341255 
3357.983692  	95.315326 
3359.420570  	95.289068 
3360.857448  	95.264570 
3362.294326  	95.164854 
3363.731204  	95.178790 
3365.168082  	95.307111 
3366.604960  	95.284888 
3368.041838  	95.196110 
3369.478716  	95.175485 
3370.915594  	95.163243 
3372.352472  	95.140496 
3373.789350  	95.073733 
3375.226227  	95.070867 
3376.663105  	95.189743 
3378.099983  	95.171147 
3379.536861  	95.000341 
3380.973739  	94.951073 
3382.410617  	95.065068 
3383.847495  	95.220557 
3385.284373  	95.292851 
3386.721251  	95.179014 
3388.158129  	94.987582 
3389.595007  	94.971968 
3391.031885  	95.099719 
3392.468762  	95.136762 
3393.905640  	95.118421 
3395.342518  	95.103419 
3396.779396  	95.052353 
3398.216274  	95.055471 
3399.653152  	95.052745 
3401.090030  	95.046836 
3402.526908  	95.148080 
3403.963786  	95.101462 
3405.400664  	94.966328 
3406.837542  	95.072921 
3408.274420  	95.160836 
3409.711297  	95.085583 
3411.148175  	95.052490 
3412.585053  	95.056516 
3414.021931  	95.074346 
3415.458809  	95.027322 
3416.895687  	94.979594 
3418.332565  	95.122976 
3419.769443  	95.198542 
3421.206321  	95.103315 
3422.643199  	95.083915 
3424.080077  	95.094313 
3425.516955  	95.138115 
3426.953832  	95.195887 
3428.390710  	95.143299 
3429.827588  	95.116472 
3431.264466  	95.085316 
3432.701344  	94.995919 
3434.138222  	95.018318 
3435.575100  	95.062754 
3437.011978  	95.058598 
3438.448856  	95.047116 
3439.885734  	94.999159 
3441.322612  	95.021336 
3442.759490  	95.082689 
3444.196367  	95.109115 
3445.633245  	95.150504 
3447.070123  	95.128960 
3448.507001  	95.155894 
3449.943879  	95.267752 
3451.380757  	95.238603 
3452.817635  	95.200234 
3454.254513  	95.233465 
3455.691391  	95.226785 
3457.128269  	95.300046 
3458.565147  	95.366492 
3460.002025  	95.310966 
3461.438902  	95.255083 
3462.875780  	95.192683 
3464.312658  	95.179595 
3465.749536  	95.212399 
3467.186414  	95.197210 
3468.623292  	95.267734 
3470.060170  	95.348212 
3471.497048  	95.318101 
3472.933926  	95.330757 
3474.370804  	95.356772 
3475.807682  	95.399160 
3477.244560  	95.538083 
3478.681437  	95.571140 
3480.118315  	95.443725 
3481.555193  	95.350510 
3482.992071  	95.368283 
3484.428949  	95.431352 
3485.865827  	95.470514 
3487.302705  	95.505130 
3488.739583  	95.512361 
3490.176461  	95.515139 
3491.613339  	95.597890 
3493.050217  	95.599906 
3494.487095  	95.491606 
3495.923972  	95.487967 
3497.360850  	95.550784 
3498.797728  	95.635331 
3500.234606  	95.719781 
3501.671484  	95.657018 
3503.108362  	95.582323 
3504.545240  	95.630827 
3505.982118  	95.681360 
3507.418996  	95.755669 
3508.855874  	95.814577 
3510.292752  	95.814316 
3511.729630  	95.852019 
3513.166507  	95.809966 
3514.603385  	95.709144 
3516.040263  	95.811750 
3517.477141  	96.017620 
3518.914019  	96.093159 
3520.350897  	96.065059 
3521.787775  	96.006493 
3523.224653  	95.983381 
3524.661531  	96.062940 
3526.098409  	96.147092 
3527.535287  	96.130324 
3528.972165  	96.044051 
3530.409043  	96.016456 
3531.845920  	96.141017 
3533.282798  	96.275756 
3534.719676  	96.235438 
3536.156554  	96.170622 
3537.593432  	96.240193 
3539.030310  	96.339683 
3540.467188  	96.407167 
3541.904066  	96.366748 
3543.340944  	96.241636 
3544.777822  	96.266231 
3546.214700  	96.397570 
3547.651578  	96.417913 
3549.088455  	96.361808 
3550.525333  	96.322386 
3551.962211  	96.384380 
3553.399089  	96.471817 
3554.835967  	96.441993 
3556.272845  	96.467367 
3557.709723  	96.550063 
3559.146601  	96.551350 
3560.583479  	96.548681 
3562.020357  	96.558520 
3563.457235  	96.539347 
3564.894113  	96.536159 
3566.330990  	96.529562 
3567.767868  	96.609134 
3569.204746  	96.751212 
3570.641624  	96.778276 
3572.078502  	96.801418 
3573.515380  	96.816426 
3574.952258  	96.763640 
3576.389136  	96.786718 
3577.826014  	96.863918 
3579.262892  	96.932821 
3580.699770  	96.972637 
3582.136648  	96.942863 
3583.573525  	96.935310 
3585.010403  	96.924229 
3586.447281  	96.906394 
3587.884159  	97.041850 
3589.321037  	97.079788 
3590.757915  	96.963317 
3592.194793  	96.956876 
3593.631671  	96.913394 
3595.068549  	96.821610 
3596.505427  	96.898961 
3597.942305  	96.979185 
3599.379183  	96.988040 
3600.816060  	97.024574 
3602.252938  	97.032424 
3603.689816  	97.003490 
3605.126694  	97.021448 
3606.563572  	97.111318 
3608.000450  	97.226941 
3609.437328  	97.315027 
3610.874206  	97.332567 
3612.311084  	97.261444 
3613.747962  	97.176270 
3615.184840  	97.142939 
3616.621718  	97.105273 
3618.058595  	97.141098 
3619.495473  	97.216568 
3620.932351  	97.202531 
3622.369229  	97.278150 
3623.806107  	97.372396 
3625.242985  	97.337378 
3626.679863  	97.252223 
3628.116741  	97.142167 
3629.553619  	97.070128 
3630.990497  	97.263374 
3632.427375  	97.296332 
3633.864253  	97.308200 
3635.301130  	97.442630 
3636.738008  	97.572559 
3638.174886  	97.663124 
3639.611764  	97.655856 
3641.048642  	97.580262 
3642.485520  	97.599745 
3643.922398  	97.650311 
3645.359276  	97.603435 
3646.796154  	97.530975 
3648.233032  	97.591888 
3649.669910  	97.780012 
3651.106788  	97.833721 
3652.543665  	97.792759 
3653.980543  	97.734547 
3655.417421  	97.697017 
3656.854299  	97.750637 
3658.291177  	97.801942 
3659.728055  	97.827641 
3661.164933  	97.966544 
3662.601811  	98.062456 
3664.038689  	98.091912 
3665.475567  	98.186180 
3666.912445  	98.182568 
3668.349323  	98.072784 
3669.786200  	98.097658 
3671.223078  	98.292226 
3672.659956  	98.382427 
3674.096834  	98.385673 
3675.533712  	98.350621 
3676.970590  	98.315248 
3678.407468  	98.266901 
3679.844346  	98.260982 
3681.281224  	98.342847 
3682.718102  	98.364206 
3684.154980  	98.390889 
3685.591858  	98.469942 
3687.028735  	98.489660 
3688.465613  	98.490645 
3689.902491  	98.539607 
3691.339369  	98.517748 
3692.776247  	98.539859 
3694.213125  	98.636369 
3695.650003  	98.638778 
3697.086881  	98.591158 
3698.523759  	98.639629 
3699.960637  	98.674710 
3701.397515  	98.670158 
3702.834393  	98.734777 
3704.271270  	98.792828 
3705.708148  	98.765739 
3707.145026  	98.745702 
3708.581904  	98.733397 
3710.018782  	98.698390 
3711.455660  	98.702647 
3712.892538  	98.736370 
3714.329416  	98.761256 
3715.766294  	98.736736 
3717.203172  	98.686499 
3718.640050  	98.695234 
3720.076928  	98.769498 
3721.513805  	98.780046 
3722.950683  	98.773116 
3724.387561  	98.822389 
3725.824439  	98.781306 
3727.261317  	98.707831 
3728.698195  	98.766945 
3730.135073  	98.795500 
3731.571951  	98.748532 
3733.008829  	98.721717 
3734.445707  	98.686133 
3735.882585  	98.627775 
3737.319463  	98.734463 
3738.756340  	98.827642 
3740.193218  	98.799801 
3741.630096  	98.736765 
3743.066974  	98.720191 
3744.503852  	98.787675 
3745.940730  	98.804756 
3747.377608  	98.679649 
3748.814486  	98.602516 
3750.251364  	98.625310 
3751.688242  	98.663530 
3753.125120  	98.696923 
3754.561998  	98.764104 
3755.998875  	98.801285 
3757.435753  	98.818436 
3758.872631  	98.795993 
3760.309509  	98.829381 
3761.746387  	98.884058 
3763.183265  	98.851024 
3764.620143  	98.816144 
3766.057021  	98.797692 
3767.493899  	98.745130 
3768.930777  	98.741775 
3770.367655  	98.792103 
3771.804533  	98.808264 
3773.241411  	98.827212 
3774.678288  	98.858958 
3776.115166  	98.858511 
3777.552044  	98.839774 
3778.988922  	98.824956 
3780.425800  	98.854743 
3781.862678  	98.880641 
3783.299556  	98.834167 
3784.736434  	98.772390 
3786.173312  	98.785957 
3787.610190  	98.856915 
3789.047068  	98.895699 
3790.483946  	98.876301 
3791.920823  	98.880366 
3793.357701  	98.923213 
3794.794579  	98.964636 
3796.231457  	98.936069 
3797.668335  	98.829236 
3799.105213  	98.763633 
3800.542091  	98.762976 
3801.978969  	98.819103 
3803.415847  	98.923655 
3804.852725  	98.943436 
3806.289603  	98.921337 
3807.726481  	98.883251 
3809.163358  	98.846603 
3810.600236  	98.843574 
3812.037114  	98.862060 
3813.473992  	98.878869 
3814.910870  	98.939841 
3816.347748  	98.988665 
3817.784626  	98.898813 
3819.221504  	98.842017 
3820.658382  	98.815075 
3822.095260  	98.808044 
3823.532138  	98.910459 
3824.969016  	98.920349 
3826.405893  	98.848089 
3827.842771  	98.808701 
3829.279649  	98.846533 
3830.716527  	98.876418 
3832.153405  	98.870312 
3833.590283  	98.873298 
3835.027161  	98.835736 
3836.464039  	98.738263 
3837.900917  	98.692137 
3839.337795  	98.776929 
3840.774673  	98.879218 
3842.211551  	98.908793 
3843.648428  	98.886965 
3845.085306  	98.855038 
3846.522184  	98.821320 
3847.959062  	98.798840 
3849.395940  	98.846606 
3850.832818  	98.830003 
3852.269696  	98.770891 
3853.706574  	98.967231 
3855.143452  	99.097422 
3856.580330  	98.918727 
3858.017208  	98.870174 
3859.454086  	98.850650 
3860.890963  	98.781563 
3862.327841  	98.722925 
3863.764719  	98.718466 
3865.201597  	98.796546 
3866.638475  	98.806350 
3868.075353  	98.759556 
3869.512231  	98.883688 
3870.949109  	98.970197 
3872.385987  	98.823867 
3873.822865  	98.810137 
3875.259743  	98.851142 
3876.696621  	98.776058 
3878.133498  	98.728601 
3879.570376  	98.718344 
3881.007254  	98.676916 
3882.444132  	98.648062 
3883.881010  	98.667409 
3885.317888  	98.731054 
3886.754766  	98.779284 
3888.191644  	98.820215 
3889.628522  	98.890597 
3891.065400  	98.911924 
3892.502278  	98.810710 
3893.939156  	98.763862 
3895.376033  	98.809002 
3896.812911  	98.853733 
3898.249789  	98.806763 
3899.686667  	98.707128 
3901.123545  	98.670236 
3902.560423  	98.670067 
3903.997301  	98.748881 
3905.434179  	98.882689 
3906.871057  	98.891915 
3908.307935  	98.900645 
3909.744813  	98.955202 
3911.181691  	98.912281 
3912.618568  	98.831132 
3914.055446  	98.824647 
3915.492324  	98.808739 
3916.929202  	98.770765 
3918.366080  	98.824776 
3919.802958  	98.877946 
3921.239836  	98.857335 
3922.676714  	98.864277 
3924.113592  	98.899784 
3925.550470  	98.863976 
3926.987348  	98.844928 
3928.424226  	98.861338 
3929.861103  	98.822092 
3931.297981  	98.759461 
3932.734859  	98.790171 
3934.171737  	98.876656 
3935.608615  	98.896104 
3937.045493  	98.871635 
3938.482371  	98.894884 
3939.919249  	98.907970 
3941.356127  	98.869143 
3942.793005  	98.846909 
3944.229883  	98.862083 
3945.666761  	98.875644 
3947.103638  	98.858623 
3948.540516  	98.820253 
3949.977394  	98.842307 
3951.414272  	98.884997 
3952.851150  	98.917142 
3954.288028  	98.958183 
3955.724906  	98.930612 
3957.161784  	98.805439 
3958.598662  	98.782090 
3960.035540  	98.805673 
3961.472418  	98.815859 
3962.909296  	98.832006 
3964.346173  	98.794890 
3965.783051  	98.767532 
3967.219929  	98.797135 
3968.656807  	98.865684 
3970.093685  	98.983987 
3971.530563  	99.022348 
3972.967441  	98.945018 
3974.404319  	98.900258 
3975.841197  	98.883014 
3977.278075  	98.851372 
3978.714953  	98.815087 
3980.151831  	98.772425 
3981.588708  	98.786790 
3983.025586  	98.834812 
3984.462464  	98.859991 
3985.899342  	98.908574 
3987.336220  	98.928859 
3988.773098  	98.872374 
3990.209976  	98.829097 
3991.646854  	98.843843 
3993.083732  	98.882604 
3994.520610  	98.874649 
3995.957488  	98.815352 
3997.394366  	98.821521 
3998.831244  	98.884206 
4000.268121  	98.890770 