##TITLE=No Description
##DATA TYPE=INFRARED SPECTRUM
##XUNITS=1/CM
##YUNITS=%T
399.460154  	87.673667 
400.897061  	85.500690 
402.333968  	84.642620 
403.770875  	83.916965 
405.207782  	85.057579 
406.644689  	87.096045 
408.081596  	85.479140 
409.518503  	83.643689 
410.955410  	82.863176 
412.392317  	82.104129 
413.829224  	82.984829 
415.266131  	82.595021 
416.703038  	80.606773 
418.139945  	80.508763 
419.576852  	80.346647 
421.013759  	79.163790 
422.450666  	78.526509 
423.887574  	77.699768 
425.324481  	77.381349 
426.761388  	77.254782 
428.198295  	77.571435 
429.635202  	78.273280 
431.072109  	78.581295 
432.509016  	79.891316 
433.945923  	80.846288 
435.382830  	80.210232 
436.819737  	80.613614 
438.256644  	81.315546 
439.693551  	81.309922 
441.130458  	81.677834 
442.567365  	81.525454 
444.004272  	81.441127 
445.441179  	82.042432 
446.878086  	82.560216 
448.314993  	83.411468 
449.751900  	83.197737 
451.188807  	82.428223 
452.625714  	83.138158 
454.062621  	83.612263 
455.499528  	83.295952 
456.936435  	83.114478 
458.373342  	82.422291 
459.810249  	82.525692 
461.247156  	82.937137 
462.684063  	82.736812 
464.120970  	82.826787 
465.557877  	82.778572 
466.994784  	82.643255 
468.431691  	82.693592 
469.868598  	81.935219 
471.305505  	81.462443 
472.742413  	81.950846 
474.179320  	82.138002 
475.616227  	82.072616 
477.053134  	81.358736 
478.490041  	80.090798 
479.926948  	79.414597 
481.363855  	78.852744 
482.800762  	78.168761 
484.237669  	77.502074 
485.674576  	76.765994 
487.111483  	76.601786 
488.548390  	76.913650 
489.985297  	77.407077 
491.422204  	77.978197 
492.859111  	78.551437 
494.296018  	79.485385 
495.732925  	80.208376 
497.169832  	80.414624 
498.606739  	80.882331 
500.043646  	81.227658 
501.480553  	81.155044 
502.917460  	81.398645 
504.354367  	81.847949 
505.791274  	82.142447 
507.228181  	82.208416 
508.665088  	82.006624 
510.101995  	81.839368 
511.538902  	81.878802 
512.975809  	82.118963 
514.412716  	82.203710 
515.849623  	81.882031 
517.286530  	81.677660 
518.723437  	81.790635 
520.160344  	81.888980 
521.597251  	81.923777 
523.034159  	81.917949 
524.471066  	81.933086 
525.907973  	81.711034 
527.344880  	81.402324 
528.781787  	81.556421 
530.218694  	81.570762 
531.655601  	81.330232 
533.092508  	81.393713 
534.529415  	81.211736 
535.966322  	80.943843 
537.403229  	81.041110 
538.840136  	80.795952 
540.277043  	80.575157 
541.713950  	80.808347 
543.150857  	80.804979 
544.587764  	80.696925 
546.024671  	80.629859 
547.461578  	80.472676 
548.898485  	80.496498 
550.335392  	80.409782 
551.772299  	80.141922 
553.209206  	80.053550 
554.646113  	80.021667 
556.083020  	80.032252 
557.519927  	80.026768 
558.956834  	79.932736 
560.393741  	79.918967 
561.830648  	79.784632 
563.267555  	79.592193 
564.704462  	79.596740 
566.141369  	79.550431 
567.578276  	79.430562 
569.015183  	79.285504 
570.452090  	79.078035 
571.888997  	79.054902 
573.325905  	79.107266 
574.762812  	78.995438 
576.199719  	78.824629 
577.636626  	78.712613 
579.073533  	78.667772 
580.510440  	78.581787 
581.947347  	78.513616 
583.384254  	78.573054 
584.821161  	78.498512 
586.258068  	78.323697 
587.694975  	78.258575 
589.131882  	78.156875 
590.568789  	78.074814 
592.005696  	78.017713 
593.442603  	77.873284 
594.879510  	77.839865 
596.316417  	77.903199 
597.753324  	77.924685 
599.190231  	77.841873 
600.627138  	77.597468 
602.064045  	77.486438 
603.500952  	77.553214 
604.937859  	77.511472 
606.374766  	77.456404 
607.811673  	77.413254 
609.248580  	77.354164 
610.685487  	77.324046 
612.122394  	77.289510 
613.559301  	77.277097 
614.996208  	77.293393 
616.433115  	77.244284 
617.870022  	77.260786 
619.306929  	77.342192 
620.743836  	77.302825 
622.180744  	77.251124 
623.617651  	77.269474 
625.054558  	77.266742 
626.491465  	77.217101 
627.928372  	77.138655 
629.365279  	77.123083 
630.802186  	77.138592 
632.239093  	77.092339 
633.676000  	77.109378 
635.112907  	77.176092 
636.549814  	77.199714 
637.986721  	77.223066 
639.423628  	77.224562 
640.860535  	77.222417 
642.297442  	77.209703 
643.734349  	77.179615 
645.171256  	77.268963 
646.608163  	77.365199 
648.045070  	77.389999 
649.481977  	77.449250 
650.918884  	77.489208 
652.355791  	77.565856 
653.792698  	77.688311 
655.229605  	77.733465 
656.666512  	77.801026 
658.103419  	77.880799 
659.540326  	77.912505 
660.977233  	78.009235 
662.414140  	78.124203 
663.851047  	78.209155 
665.287954  	78.297575 
666.724861  	78.385343 
668.161768  	78.447257 
669.598675  	78.525941 
671.035582  	78.557032 
672.472490  	78.661238 
673.909397  	78.738276 
675.346304  	78.813738 
676.783211  	78.982032 
678.220118  	79.095268 
679.657025  	79.197060 
681.093932  	79.340933 
682.530839  	79.429086 
683.967746  	79.547152 
685.404653  	79.692945 
686.841560  	79.790360 
688.278467  	79.880566 
689.715374  	79.984811 
691.152281  	80.097782 
692.589188  	80.213194 
694.026095  	80.297601 
695.463002  	80.378338 
696.899909  	80.487229 
698.336816  	80.624108 
699.773723  	80.844437 
701.210630  	81.010319 
702.647537  	81.137083 
704.084444  	81.305826 
705.521351  	81.458850 
706.958258  	81.603662 
708.395165  	81.730653 
709.832072  	81.836499 
711.268979  	81.978405 
712.705886  	82.098615 
714.142793  	82.209887 
715.579700  	82.354225 
717.016607  	82.496934 
718.453514  	82.642983 
719.890421  	82.786048 
721.327328  	82.895568 
722.764236  	83.056158 
724.201143  	83.212314 
725.638050  	83.323756 
727.074957  	83.476871 
728.511864  	83.600950 
729.948771  	83.688211 
731.385678  	83.830250 
732.822585  	83.989890 
734.259492  	84.173657 
735.696399  	84.365380 
737.133306  	84.536316 
738.570213  	84.686898 
740.007120  	84.789299 
741.444027  	84.840125 
742.880934  	84.969890 
744.317841  	85.199385 
745.754748  	85.464267 
747.191655  	85.651909 
748.628562  	85.727880 
750.065469  	85.852320 
751.502376  	86.014376 
752.939283  	86.104990 
754.376190  	86.205105 
755.813097  	86.304685 
757.250004  	86.382635 
758.686911  	86.560863 
760.123818  	86.764151 
761.560725  	86.881801 
762.997632  	87.031381 
764.434539  	87.223792 
765.871446  	87.356498 
767.308353  	87.474997 
768.745260  	87.604642 
770.182167  	87.715521 
771.619075  	87.859231 
773.055982  	88.003212 
774.492889  	88.100600 
775.929796  	88.235417 
777.366703  	88.372995 
778.803610  	88.458426 
780.240517  	88.590895 
781.677424  	88.741615 
783.114331  	88.836564 
784.551238  	88.952884 
785.988145  	89.087436 
787.425052  	89.167015 
788.861959  	89.218619 
790.298866  	89.310075 
791.735773  	89.472252 
793.172680  	89.643338 
794.609587  	89.715930 
796.046494  	89.712784 
797.483401  	89.744184 
798.920308  	89.769993 
800.357215  	89.705068 
801.794122  	89.634905 
803.231029  	89.497296 
804.667936  	89.087964 
806.104843  	88.434368 
807.541750  	87.443618 
808.978657  	85.810996 
810.415564  	83.154280 
811.852471  	78.871637 
813.289378  	73.236293 
814.726285  	67.983233 
816.163192  	65.221098 
817.600099  	66.183901 
819.037006  	70.581756 
820.473913  	76.713833 
821.910821  	82.200972 
823.347728  	85.887701 
824.784635  	88.004645 
826.221542  	89.250167 
827.658449  	90.103423 
829.095356  	90.711650 
830.532263  	91.166811 
831.969170  	91.485017 
833.406077  	91.730009 
834.842984  	92.015117 
836.279891  	92.253858 
837.716798  	92.394200 
839.153705  	92.525620 
840.590612  	92.662221 
842.027519  	92.779866 
843.464426  	92.889497 
844.901333  	93.041770 
846.338240  	93.223380 
847.775147  	93.344102 
849.212054  	93.441414 
850.648961  	93.559839 
852.085868  	93.629450 
853.522775  	93.672110 
854.959682  	93.765043 
856.396589  	93.891852 
857.833496  	93.972991 
859.270403  	94.009002 
860.707310  	94.100511 
862.144217  	94.224971 
863.581124  	94.302441 
865.018031  	94.363175 
866.454938  	94.408824 
867.891845  	94.443630 
869.328752  	94.501190 
870.765660  	94.557990 
872.202567  	94.612509 
873.639474  	94.650347 
875.076381  	94.678244 
876.513288  	94.743952 
877.950195  	94.784328 
879.387102  	94.796651 
880.824009  	94.839194 
882.260916  	94.854987 
883.697823  	94.886378 
885.134730  	94.972374 
886.571637  	95.003592 
888.008544  	94.993615 
889.445451  	95.001080 
890.882358  	95.008206 
892.319265  	95.007562 
893.756172  	94.978928 
895.193079  	94.961339 
896.629986  	94.978281 
898.066893  	94.965854 
899.503800  	94.933347 
900.940707  	94.888681 
902.377614  	94.819266 
903.814521  	94.760795 
905.251428  	94.686288 
906.688335  	94.613840 
908.125242  	94.590073 
909.562149  	94.515353 
910.999056  	94.351565 
912.435963  	94.142442 
913.872870  	93.859983 
915.309777  	93.558598 
916.746684  	93.302075 
918.183591  	92.994988 
919.620498  	92.614019 
921.057406  	92.266926 
922.494313  	91.971619 
923.931220  	91.673461 
925.368127  	91.302616 
926.805034  	90.802406 
928.241941  	90.152677 
929.678848  	89.248730 
931.115755  	88.049637 
932.552662  	86.665716 
933.989569  	85.067148 
935.426476  	83.278196 
936.863383  	81.370877 
938.300290  	79.047391 
939.737197  	76.004631 
941.174104  	71.929939 
942.611011  	66.571839 
944.047918  	60.421438 
945.484825  	54.057550 
946.921732  	48.190261 
948.358639  	43.861474 
949.795546  	41.366510 
951.232453  	41.311856 
952.669360  	44.190055 
954.106267  	49.325002 
955.543174  	56.046133 
956.980081  	63.551859 
958.416988  	70.921731 
959.853895  	77.418590 
961.290802  	82.523647 
962.727709  	86.140021 
964.164616  	88.599442 
965.601523  	90.322402 
967.038430  	91.522862 
968.475337  	92.422894 
969.912244  	93.108008 
971.349152  	93.567382 
972.786059  	93.963138 
974.222966  	94.305379 
975.659873  	94.559127 
977.096780  	94.795701 
978.533687  	94.955232 
979.970594  	95.105721 
981.407501  	95.328259 
982.844408  	95.486542 
984.281315  	95.596217 
985.718222  	95.707627 
987.155129  	95.780972 
988.592036  	95.877899 
990.028943  	96.000144 
991.465850  	96.112208 
992.902757  	96.191361 
994.339664  	96.202386 
995.776571  	96.232493 
997.213478  	96.293007 
998.650385  	96.323981 
1000.087292  	96.365207 
1001.524199  	96.386664 
1002.961106  	96.399060 
1004.398013  	96.437175 
1005.834920  	96.423598 
1007.271827  	96.419662 
1008.708734  	96.463963 
1010.145641  	96.478222 
1011.582548  	96.510875 
1013.019455  	96.528538 
1014.456362  	96.488867 
1015.893269  	96.487264 
1017.330176  	96.480606 
1018.767083  	96.453496 
1020.203991  	96.478242 
1021.640898  	96.497566 
1023.077805  	96.500425 
1024.514712  	96.503083 
1025.951619  	96.476732 
1027.388526  	96.460166 
1028.825433  	96.442253 
1030.262340  	96.407975 
1031.699247  	96.396429 
1033.136154  	96.375759 
1034.573061  	96.344659 
1036.009968  	96.335356 
1037.446875  	96.323706 
1038.883782  	96.302399 
1040.320689  	96.276670 
1041.757596  	96.254232 
1043.194503  	96.216048 
1044.631410  	96.127946 
1046.068317  	96.053812 
1047.505224  	96.026265 
1048.942131  	95.983148 
1050.379038  	95.916371 
1051.815945  	95.821383 
1053.252852  	95.698790 
1054.689759  	95.605540 
1056.126666  	95.532241 
1057.563573  	95.430833 
1059.000480  	95.324034 
1060.437387  	95.226439 
1061.874294  	95.092322 
1063.311201  	94.916594 
1064.748108  	94.758803 
1066.185015  	94.616951 
1067.621922  	94.431607 
1069.058829  	94.186107 
1070.495737  	93.901480 
1071.932644  	93.624174 
1073.369551  	93.362900 
1074.806458  	93.049916 
1076.243365  	92.665709 
1077.680272  	92.252042 
1079.117179  	91.779767 
1080.554086  	91.206249 
1081.990993  	90.582491 
1083.427900  	89.889362 
1084.864807  	89.025380 
1086.301714  	88.040303 
1087.738621  	86.966503 
1089.175528  	85.748582 
1090.612435  	84.424986 
1092.049342  	82.938288 
1093.486249  	81.299117 
1094.923156  	79.620989 
1096.360063  	77.833014 
1097.796970  	76.046034 
1099.233877  	74.295679 
1100.670784  	72.517756 
1102.107691  	71.054619 
1103.544598  	69.912745 
1104.981505  	69.050774 
1106.418412  	68.689670 
1107.855319  	68.587585 
1109.292226  	68.748002 
1110.729133  	69.234283 
1112.166040  	69.783322 
1113.602947  	70.469721 
1115.039854  	71.165469 
1116.476761  	71.639664 
1117.913668  	71.844409 
1119.350575  	71.432495 
1120.787483  	70.282670 
1122.224390  	68.469445 
1123.661297  	66.060341 
1125.098204  	63.703640 
1126.535111  	61.909756 
1127.972018  	60.997902 
1129.408925  	61.389400 
1130.845832  	62.770078 
1132.282739  	64.966909 
1133.719646  	67.839396 
1135.156553  	70.828128 
1136.593460  	73.731619 
1138.030367  	76.228572 
1139.467274  	78.046423 
1140.904181  	79.346314 
1142.341088  	80.157266 
1143.777995  	80.527333 
1145.214902  	80.575087 
1146.651809  	80.243819 
1148.088716  	79.631227 
1149.525623  	78.783591 
1150.962530  	77.607838 
1152.399437  	76.205142 
1153.836344  	74.552950 
1155.273251  	72.725111 
1156.710158  	70.971657 
1158.147065  	69.366725 
1159.583972  	68.309708 
1161.020879  	68.052281 
1162.457786  	68.599984 
1163.894693  	70.274490 
1165.331600  	72.901731 
1166.768507  	76.132785 
1168.205414  	79.709593 
1169.642322  	83.103090 
1171.079229  	86.019582 
1172.516136  	88.385972 
1173.953043  	90.182003 
1175.389950  	91.517840 
1176.826857  	92.500612 
1178.263764  	93.197412 
1179.700671  	93.730660 
1181.137578  	94.133272 
1182.574485  	94.370761 
1184.011392  	94.527531 
1185.448299  	94.641540 
1186.885206  	94.725544 
1188.322113  	94.846593 
1189.759020  	94.963893 
1191.195927  	95.080905 
1192.632834  	95.247561 
1194.069741  	95.405572 
1195.506648  	95.545802 
1196.943555  	95.657074 
1198.380462  	95.709465 
1199.817369  	95.766200 
1201.254276  	95.809683 
1202.691183  	95.824335 
1204.128090  	95.857943 
1205.564997  	95.867888 
1207.001904  	95.878791 
1208.438811  	95.913624 
1209.875718  	95.905013 
1211.312625  	95.898006 
1212.749532  	95.912245 
1214.186439  	95.907597 
1215.623346  	95.905839 
1217.060253  	95.894952 
1218.497160  	95.888358 
1219.934068  	95.880707 
1221.370975  	95.837716 
1222.807882  	95.827092 
1224.244789  	95.824238 
1225.681696  	95.786400 
1227.118603  	95.787458 
1228.555510  	95.780699 
1229.992417  	95.741045 
1231.429324  	95.722933 
1232.866231  	95.681812 
1234.303138  	95.634250 
1235.740045  	95.600720 
1237.176952  	95.541068 
1238.613859  	95.487833 
1240.050766  	95.430881 
1241.487673  	95.354819 
1242.924580  	95.281638 
1244.361487  	95.189728 
1245.798394  	95.105332 
1247.235301  	95.026488 
1248.672208  	94.927171 
1250.109115  	94.841526 
1251.546022  	94.747417 
1252.982929  	94.649528 
1254.419836  	94.553347 
1255.856743  	94.410979 
1257.293650  	94.293696 
1258.730557  	94.204686 
1260.167464  	94.064619 
1261.604371  	93.926718 
1263.041278  	93.783842 
1264.478185  	93.601177 
1265.915092  	93.409497 
1267.351999  	93.180643 
1268.788907  	92.926815 
1270.225814  	92.653779 
1271.662721  	92.347585 
1273.099628  	92.056943 
1274.536535  	91.730457 
1275.973442  	91.331607 
1277.410349  	90.910440 
1278.847256  	90.448291 
1280.284163  	89.947680 
1281.721070  	89.413189 
1283.157977  	88.821802 
1284.594884  	88.197534 
1286.031791  	87.550250 
1287.468698  	86.886419 
1288.905605  	86.212743 
1290.342512  	85.556069 
1291.779419  	84.931577 
1293.216326  	84.308778 
1294.653233  	83.727943 
1296.090140  	83.171969 
1297.527047  	82.618208 
1298.963954  	82.147910 
1300.400861  	81.732252 
1301.837768  	81.399584 
1303.274675  	81.182419 
1304.711582  	81.019239 
1306.148489  	80.996886 
1307.585396  	81.076939 
1309.022303  	81.177372 
1310.459210  	81.386796 
1311.896117  	81.650887 
1313.333024  	81.994385 
1314.769931  	82.475573 
1316.206838  	82.969661 
1317.643745  	83.543119 
1319.080653  	84.259225 
1320.517560  	85.006759 
1321.954467  	85.759795 
1323.391374  	86.511528 
1324.828281  	87.222451 
1326.265188  	87.862494 
1327.702095  	88.015550 
1329.139002  	88.391343 
1330.575909  	88.753209 
1332.012816  	88.821304 
1333.449723  	88.907556 
1334.886630  	88.533057 
1336.323537  	87.901207 
1337.760444  	87.084139 
1339.197351  	86.202115 
1340.634258  	85.566823 
1342.071165  	85.612559 
1343.508072  	86.198590 
1344.944979  	87.168293 
1346.381886  	88.262781 
1347.818793  	88.504573 
1349.255700  	88.895879 
1350.692607  	89.432885 
1352.129514  	90.469773 
1353.566421  	89.797420 
1355.003328  	89.529173 
1356.440235  	89.815808 
1357.877142  	89.285207 
1359.314049  	87.985032 
1360.750956  	86.488344 
1362.187863  	84.500819 
1363.624770  	82.264886 
1365.061677  	80.329427 
1366.498584  	78.796247 
1367.935491  	78.252033 
1369.372399  	78.254572 
1370.809306  	78.697527 
1372.246213  	78.968312 
1373.683120  	78.552684 
1375.120027  	77.006599 
1376.556934  	75.179269 
1377.993841  	73.330287 
1379.430748  	72.632543 
1380.867655  	73.733080 
1382.304562  	75.737644 
1383.741469  	78.254044 
1385.178376  	80.934127 
1386.615283  	83.194583 
1388.052190  	85.355635 
1389.489097  	86.564156 
1390.926004  	87.926184 
1392.362911  	88.141180 
1393.799818  	88.173009 
1395.236725  	88.170706 
1396.673632  	88.003995 
1398.110539  	87.858312 
1399.547446  	87.682982 
1400.984353  	87.457003 
1402.421260  	87.285710 
1403.858167  	87.070086 
1405.295074  	86.760719 
1406.731981  	86.497430 
1408.168888  	86.404522 
1409.605795  	86.456012 
1411.042702  	86.620345 
1412.479609  	86.841721 
1413.916516  	87.109330 
1415.353423  	87.425513 
1416.790330  	87.749889 
1418.227238  	88.043943 
1419.664145  	88.338296 
1421.101052  	88.688474 
1422.537959  	88.957028 
1423.974866  	89.185741 
1425.411773  	89.452532 
1426.848680  	89.721355 
1428.285587  	89.986235 
1429.722494  	90.261921 
1431.159401  	90.521596 
1432.596308  	90.794289 
1434.033215  	91.031581 
1435.470122  	91.241348 
1436.907029  	91.457978 
1438.343936  	91.635862 
1439.780843  	91.847850 
1441.217750  	91.987496 
1442.654657  	92.113388 
1444.091564  	92.241841 
1445.528471  	92.239916 
1446.965378  	92.042147 
1448.402285  	91.615763 
1449.839192  	91.037221 
1451.276099  	90.514857 
1452.713006  	89.904792 
1454.149913  	89.345289 
1455.586820  	89.010533 
1457.023727  	88.560695 
1458.460634  	87.918746 
1459.897541  	87.241218 
1461.334448  	86.621102 
1462.771355  	86.092167 
1464.208262  	85.501887 
1465.645169  	84.939369 
1467.082076  	84.570620 
1468.518984  	84.799525 
1469.955891  	85.676829 
1471.392798  	86.662779 
1472.829705  	88.311185 
1474.266612  	89.670175 
1475.703519  	90.307116 
1477.140426  	91.189390 
1478.577333  	91.798019 
1480.014240  	92.334557 
1481.451147  	93.004535 
1482.888054  	93.459796 
1484.324961  	93.932646 
1485.761868  	94.190184 
1487.198775  	94.329990 
1488.635682  	94.550903 
1490.072589  	94.706794 
1491.509496  	94.886943 
1492.946403  	95.121981 
1494.383310  	95.278014 
1495.820217  	95.400168 
1497.257124  	95.544952 
1498.694031  	95.702366 
1500.130938  	95.905434 
1501.567845  	96.069142 
1503.004752  	96.231183 
1504.441659  	96.374467 
1505.878566  	96.494402 
1507.315473  	96.376888 
1508.752380  	96.297259 
1510.189287  	96.340762 
1511.626194  	96.425660 
1513.063101  	96.525266 
1514.500008  	96.685993 
1515.936915  	96.863479 
1517.373822  	96.896761 
1518.810730  	96.948267 
1520.247637  	97.024926 
1521.684544  	96.923978 
1523.121451  	96.919525 
1524.558358  	97.002124 
1525.995265  	97.074697 
1527.432172  	97.094396 
1528.869079  	97.094733 
1530.305986  	97.171335 
1531.742893  	97.251726 
1533.179800  	97.350035 
1534.616707  	97.442022 
1536.053614  	97.431386 
1537.490521  	97.515844 
1538.927428  	97.611728 
1540.364335  	97.350548 
1541.801242  	97.312430 
1543.238149  	97.382638 
1544.675056  	97.327975 
1546.111963  	97.328692 
1547.548870  	97.385672 
1548.985777  	97.438827 
1550.422684  	97.561668 
1551.859591  	97.673734 
1553.296498  	97.748125 
1554.733405  	97.768244 
1556.170312  	97.787854 
1557.607219  	97.895454 
1559.044126  	97.544607 
1560.481033  	97.379385 
1561.917940  	97.608937 
1563.354847  	97.692344 
1564.791754  	97.721879 
1566.228661  	97.825669 
1567.665569  	98.051900 
1569.102476  	98.217867 
1570.539383  	98.098112 
1571.976290  	97.995412 
1573.413197  	97.959693 
1574.850104  	98.017243 
1576.287011  	97.937662 
1577.723918  	97.808610 
1579.160825  	97.821869 
1580.597732  	97.875280 
1582.034639  	97.842110 
1583.471546  	97.822772 
1584.908453  	97.907659 
1586.345360  	97.946314 
1587.782267  	97.977169 
1589.219174  	97.973030 
1590.656081  	97.946189 
1592.092988  	97.950043 
1593.529895  	97.914860 
1594.966802  	97.843278 
1596.403709  	97.852594 
1597.840616  	97.879180 
1599.277523  	97.870188 
1600.714430  	97.806704 
1602.151337  	97.752140 
1603.588244  	97.797105 
1605.025151  	97.802423 
1606.462058  	97.717792 
1607.898965  	97.662875 
1609.335872  	97.678790 
1610.772779  	97.700143 
1612.209686  	97.665927 
1613.646593  	97.586746 
1615.083500  	97.573031 
1616.520407  	97.505092 
1617.957315  	97.299001 
1619.394222  	97.236326 
1620.831129  	97.239174 
1622.268036  	97.183166 
1623.704943  	96.994182 
1625.141850  	96.897894 
1626.578757  	96.908288 
1628.015664  	96.855578 
1629.452571  	96.749149 
1630.889478  	96.647757 
1632.326385  	96.580067 
1633.763292  	96.633154 
1635.200199  	96.599015 
1636.637106  	96.155554 
1638.074013  	96.130062 
1639.510920  	96.156519 
1640.947827  	96.044432 
1642.384734  	96.024508 
1643.821641  	96.163789 
1645.258548  	96.362717 
1646.695455  	96.373114 
1648.132362  	95.993532 
1649.569269  	95.908551 
1651.006176  	96.113232 
1652.443083  	96.246568 
1653.879990  	95.466523 
1655.316897  	95.642187 
1656.753804  	95.891454 
1658.190711  	95.959742 
1659.627618  	95.912526 
1661.064525  	96.021672 
1662.501432  	96.168119 
1663.938339  	96.265443 
1665.375246  	96.305389 
1666.812154  	96.303215 
1668.249061  	96.382562 
1669.685968  	96.490888 
1671.122875  	96.416313 
1672.559782  	96.456260 
1673.996689  	96.598267 
1675.433596  	96.675048 
1676.870503  	96.738313 
1678.307410  	96.794906 
1679.744317  	96.904118 
1681.181224  	97.094104 
1682.618131  	97.260286 
1684.055038  	97.249597 
1685.491945  	97.119419 
1686.928852  	97.151732 
1688.365759  	97.238029 
1689.802666  	97.370568 
1691.239573  	97.531861 
1692.676480  	97.716852 
1694.113387  	97.858345 
1695.550294  	97.903697 
1696.987201  	97.847768 
1698.424108  	97.937097 
1699.861015  	98.099297 
1701.297922  	97.863446 
1702.734829  	97.773358 
1704.171736  	97.859724 
1705.608643  	97.835593 
1707.045550  	97.811198 
1708.482457  	97.970245 
1709.919364  	98.100947 
1711.356271  	98.179002 
1712.793178  	98.256411 
1714.230085  	98.281076 
1715.666992  	98.307056 
1717.103900  	98.323265 
1718.540807  	98.174164 
1719.977714  	98.148415 
1721.414621  	98.178307 
1722.851528  	98.180271 
1724.288435  	98.197095 
1725.725342  	98.292915 
1727.162249  	98.451404 
1728.599156  	98.507030 
1730.036063  	98.487996 
1731.472970  	98.481682 
1732.909877  	98.502271 
1734.346784  	98.425587 
1735.783691  	98.358261 
1737.220598  	98.340229 
1738.657505  	98.332990 
1740.094412  	98.303994 
1741.531319  	98.344885 
1742.968226  	98.387385 
1744.405133  	98.387828 
1745.842040  	98.404692 
1747.278947  	98.435452 
1748.715854  	98.380217 
1750.152761  	98.341869 
1751.589668  	98.322060 
1753.026575  	98.283134 
1754.463482  	98.288322 
1755.900389  	98.331828 
1757.337296  	98.262038 
1758.774203  	98.209852 
1760.211110  	98.283580 
1761.648017  	98.298300 
1763.084924  	98.189098 
1764.521831  	98.209294 
1765.958738  	98.304346 
1767.395646  	98.326940 
1768.832553  	98.300422 
1770.269460  	98.295511 
1771.706367  	98.270236 
1773.143274  	98.295577 
1774.580181  	98.344351 
1776.017088  	98.400501 
1777.453995  	98.501231 
1778.890902  	98.569857 
1780.327809  	98.589840 
1781.764716  	98.616725 
1783.201623  	98.685239 
1784.638530  	98.760303 
1786.075437  	98.770667 
1787.512344  	98.770621 
1788.949251  	98.863197 
1790.386158  	98.912898 
1791.823065  	98.874535 
1793.259972  	98.832171 
1794.696879  	98.738700 
1796.133786  	98.723845 
1797.570693  	98.808718 
1799.007600  	98.827783 
1800.444507  	98.822593 
1801.881414  	98.827411 
1803.318321  	98.812030 
1804.755228  	98.853027 
1806.192135  	98.928834 
1807.629042  	98.946759 
1809.065949  	98.950694 
1810.502856  	98.956674 
1811.939763  	98.937254 
1813.376670  	98.937001 
1814.813577  	98.966503 
1816.250485  	98.971692 
1817.687392  	98.950605 
1819.124299  	99.005701 
1820.561206  	99.038354 
1821.998113  	99.025110 
1823.435020  	99.018932 
1824.871927  	98.974128 
1826.308834  	98.952019 
1827.745741  	99.010934 
1829.182648  	99.019857 
1830.619555  	98.943896 
1832.056462  	98.916657 
1833.493369  	98.908917 
1834.930276  	98.926287 
1836.367183  	98.983106 
1837.804090  	99.055815 
1839.240997  	99.108177 
1840.677904  	99.129415 
1842.114811  	99.156569 
1843.551718  	99.146690 
1844.988625  	99.018460 
1846.425532  	98.986161 
1847.862439  	99.009225 
1849.299346  	99.001991 
1850.736253  	99.027641 
1852.173160  	99.034689 
1853.610067  	99.018840 
1855.046974  	99.034497 
1856.483881  	99.050108 
1857.920788  	99.075591 
1859.357695  	99.085573 
1860.794602  	99.078800 
1862.231509  	99.075726 
1863.668416  	99.060337 
1865.105323  	99.071110 
1866.542231  	99.072895 
1867.979138  	99.008110 
1869.416045  	98.982652 
1870.852952  	99.030603 
1872.289859  	99.020058 
1873.726766  	99.009017 
1875.163673  	98.993285 
1876.600580  	99.058758 
1878.037487  	99.128154 
1879.474394  	99.119866 
1880.911301  	99.078543 
1882.348208  	99.095081 
1883.785115  	99.100541 
1885.222022  	99.107988 
1886.658929  	99.118759 
1888.095836  	99.101056 
1889.532743  	99.106583 
1890.969650  	99.103635 
1892.406557  	99.145758 
1893.843464  	99.195287 
1895.280371  	99.152726 
1896.717278  	99.126471 
1898.154185  	99.130492 
1899.591092  	99.064824 
1901.027999  	99.070995 
1902.464906  	99.107095 
1903.901813  	99.127355 
1905.338720  	99.145242 
1906.775627  	99.134535 
1908.212534  	99.130215 
1909.649441  	99.127845 
1911.086348  	99.150209 
1912.523255  	99.192198 
1913.960162  	99.192293 
1915.397069  	99.229835 
1916.833977  	99.286591 
1918.270884  	99.237684 
1919.707791  	99.151699 
1921.144698  	99.148539 
1922.581605  	99.134467 
1924.018512  	99.085903 
1925.455419  	99.066248 
1926.892326  	99.143026 
1928.329233  	99.141005 
1929.766140  	99.070885 
1931.203047  	99.103392 
1932.639954  	99.098601 
1934.076861  	99.131335 
1935.513768  	99.314953 
1936.950675  	99.301876 
1938.387582  	99.213057 
1939.824489  	99.221649 
1941.261396  	99.116981 
1942.698303  	99.162199 
1944.135210  	99.345656 
1945.572117  	99.326399 
1947.009024  	99.363367 
1948.445931  	99.369582 
1949.882838  	99.185528 
1951.319745  	99.104807 
1952.756652  	99.165999 
1954.193559  	99.304724 
1955.630466  	99.299927 
1957.067373  	99.195435 
1958.504280  	99.274997 
1959.941187  	99.246021 
1961.378094  	99.233228 
1962.815001  	99.439130 
1964.251908  	99.380261 
1965.688816  	99.292781 
1967.125723  	99.376240 
1968.562630  	99.247690 
1969.999537  	99.227975 
1971.436444  	99.286982 
1972.873351  	99.192105 
1974.310258  	99.159444 
1975.747165  	99.169218 
1977.184072  	99.117533 
1978.620979  	98.996208 
1980.057886  	98.851204 
1981.494793  	98.861392 
1982.931700  	98.908227 
1984.368607  	98.911555 
1985.805514  	98.978971 
1987.242421  	98.974607 
1988.679328  	98.985731 
1990.116235  	99.112925 
1991.553142  	98.994784 
1992.990049  	98.887072 
1994.426956  	99.057436 
1995.863863  	99.221846 
1997.300770  	99.217126 
1998.737677  	98.997701 
2000.174584  	99.013031 
2001.611491  	99.290700 
2003.048398  	99.270708 
2004.485305  	99.271423 
2005.922212  	99.439038 
2007.359119  	99.243421 
2008.796026  	99.100259 
2010.232933  	99.306979 
2011.669840  	99.443615 
2013.106747  	99.354314 
2014.543654  	99.135730 
2015.980562  	99.027938 
2017.417469  	98.898674 
2018.854376  	98.805977 
2020.291283  	99.003825 
2021.728190  	99.116391 
2023.165097  	99.189667 
2024.602004  	99.492015 
2026.038911  	99.482171 
2027.475818  	99.324918 
2028.912725  	99.225525 
2030.349632  	98.910808 
2031.786539  	98.889792 
2033.223446  	99.212243 
2034.660353  	99.209135 
2036.097260  	98.961556 
2037.534167  	98.852590 
2038.971074  	98.999062 
2040.407981  	99.063387 
2041.844888  	98.888271 
2043.281795  	98.867526 
2044.718702  	98.861798 
2046.155609  	98.719672 
2047.592516  	98.655178 
2049.029423  	98.556908 
2050.466330  	98.624721 
2051.903237  	98.948836 
2053.340144  	99.007971 
2054.777051  	98.861742 
2056.213958  	98.864270 
2057.650865  	98.879288 
2059.087772  	98.881847 
2060.524679  	98.978146 
2061.961586  	99.045403 
2063.398493  	98.937480 
2064.835401  	98.738321 
2066.272308  	98.716060 
2067.709215  	98.851715 
2069.146122  	98.939543 
2070.583029  	98.963805 
2072.019936  	98.963334 
2073.456843  	98.982658 
2074.893750  	98.963402 
2076.330657  	98.841302 
2077.767564  	98.808209 
2079.204471  	98.893349 
2080.641378  	98.905158 
2082.078285  	98.843837 
2083.515192  	98.785217 
2084.952099  	98.774511 
2086.389006  	98.810800 
2087.825913  	98.853551 
2089.262820  	98.891283 
2090.699727  	98.881445 
2092.136634  	98.888521 
2093.573541  	98.980914 
2095.010448  	98.989170 
2096.447355  	98.942116 
2097.884262  	99.014078 
2099.321169  	99.087598 
2100.758076  	99.094482 
2102.194983  	99.067326 
2103.631890  	99.001722 
2105.068797  	98.969704 
2106.505704  	98.993547 
2107.942611  	98.996970 
2109.379518  	98.900252 
2110.816425  	98.839680 
2112.253332  	98.995606 
2113.690239  	99.107864 
2115.127147  	99.030485 
2116.564054  	99.006289 
2118.000961  	98.989549 
2119.437868  	98.954270 
2120.874775  	99.039126 
2122.311682  	99.107291 
2123.748589  	99.099488 
2125.185496  	99.113242 
2126.622403  	99.175923 
2128.059310  	99.251298 
2129.496217  	99.201526 
2130.933124  	99.224146 
2132.370031  	99.456580 
2133.806938  	99.470309 
2135.243845  	99.346390 
2136.680752  	99.407934 
2138.117659  	99.413603 
2139.554566  	99.320117 
2140.991473  	99.137431 
2142.428380  	99.016002 
2143.865287  	99.130307 
2145.302194  	99.136341 
2146.739101  	99.204033 
2148.176008  	99.449221 
2149.612915  	99.334728 
2151.049822  	99.353762 
2152.486729  	99.664486 
2153.923636  	99.650759 
2155.360543  	99.844134 
2156.797450  	100.058036 
2158.234357  	99.404180 
2159.671264  	98.622546 
2161.108171  	98.587792 
2162.545078  	98.971668 
2163.981985  	99.079150 
2165.418893  	98.689416 
2166.855800  	98.537139 
2168.292707  	98.734240 
2169.729614  	98.967795 
2171.166521  	99.237353 
2172.603428  	99.192133 
2174.040335  	99.025641 
2175.477242  	99.160479 
2176.914149  	99.172840 
2178.351056  	99.013641 
2179.787963  	98.954043 
2181.224870  	98.950776 
2182.661777  	98.953370 
2184.098684  	98.792209 
2185.535591  	98.677208 
2186.972498  	98.887029 
2188.409405  	99.067071 
2189.846312  	99.086030 
2191.283219  	99.037881 
2192.720126  	98.900693 
2194.157033  	98.852809 
2195.593940  	98.847135 
2197.030847  	98.829566 
2198.467754  	98.968712 
2199.904661  	99.048089 
2201.341568  	98.936921 
2202.778475  	98.896145 
2204.215382  	98.945515 
2205.652289  	98.976454 
2207.089196  	99.071267 
2208.526103  	99.180127 
2209.963010  	99.077578 
2211.399917  	98.920993 
2212.836824  	99.011444 
2214.273732  	99.106208 
2215.710639  	99.049658 
2217.147546  	99.004980 
2218.584453  	98.948859 
2220.021360  	98.985896 
2221.458267  	99.086677 
2222.895174  	99.079222 
2224.332081  	99.194246 
2225.768988  	99.273697 
2227.205895  	99.055185 
2228.642802  	99.020506 
2230.079709  	99.187822 
2231.516616  	99.129015 
2232.953523  	99.045081 
2234.390430  	99.084747 
2235.827337  	99.066950 
2237.264244  	99.058688 
2238.701151  	99.180007 
2240.138058  	99.262747 
2241.574965  	99.150862 
2243.011872  	99.070472 
2244.448779  	99.150099 
2245.885686  	99.175735 
2247.322593  	99.172116 
2248.759500  	99.210701 
2250.196407  	99.175250 
2251.633314  	99.167010 
2253.070221  	99.177212 
2254.507128  	99.147518 
2255.944035  	99.169176 
2257.380942  	99.214685 
2258.817849  	99.187304 
2260.254756  	99.108518 
2261.691663  	99.053171 
2263.128570  	99.093573 
2264.565478  	99.167608 
2266.002385  	99.191098 
2267.439292  	99.193781 
2268.876199  	99.229790 
2270.313106  	99.266246 
2271.750013  	99.202928 
2273.186920  	99.079809 
2274.623827  	99.045703 
2276.060734  	99.061815 
2277.497641  	99.064061 
2278.934548  	99.046906 
2280.371455  	98.990774 
2281.808362  	98.966827 
2283.245269  	98.958717 
2284.682176  	98.897603 
2286.119083  	98.890219 
2287.555990  	98.923935 
2288.992897  	98.908390 
2290.429804  	98.918113 
2291.866711  	98.928500 
2293.303618  	98.904947 
2294.740525  	98.902662 
2296.177432  	98.896553 
2297.614339  	98.885852 
2299.051246  	98.868813 
2300.488153  	98.918813 
2301.925060  	98.873090 
2303.361967  	98.872934 
2304.798874  	98.895172 
2306.235781  	98.846670 
2307.672688  	98.733064 
2309.109595  	98.676502 
2310.546502  	98.702697 
2311.983409  	98.740160 
2313.420317  	98.762069 
2314.857224  	98.736378 
2316.294131  	98.686011 
2317.731038  	98.683312 
2319.167945  	98.713219 
2320.604852  	98.729294 
2322.041759  	98.658081 
2323.478666  	98.514517 
2324.915573  	98.505260 
2326.352480  	98.671631 
2327.789387  	98.841245 
2329.226294  	98.880502 
2330.663201  	98.805249 
2332.100108  	98.805434 
2333.537015  	98.924663 
2334.973922  	98.984231 
2336.410829  	98.991154 
2337.847736  	99.025172 
2339.284643  	99.024903 
2340.721550  	98.967666 
2342.158457  	98.839975 
2343.595364  	98.675521 
2345.032271  	98.616045 
2346.469178  	98.683681 
2347.906085  	98.765760 
2349.342992  	98.840814 
2350.779899  	98.947465 
2352.216806  	99.069180 
2353.653713  	99.144027 
2355.090620  	99.172909 
2356.527527  	99.114633 
2357.964434  	98.964871 
2359.401341  	98.855626 
2360.838248  	98.836524 
2362.275155  	98.862715 
2363.712063  	98.850585 
2365.148970  	98.733459 
2366.585877  	98.674950 
2368.022784  	98.753415 
2369.459691  	98.772077 
2370.896598  	98.715182 
2372.333505  	98.701665 
2373.770412  	98.703902 
2375.207319  	98.673016 
2376.644226  	98.617157 
2378.081133  	98.625469 
2379.518040  	98.725047 
2380.954947  	98.800276 
2382.391854  	98.835252 
2383.828761  	98.861303 
2385.265668  	98.865020 
2386.702575  	98.914944 
2388.139482  	98.988806 
2389.576389  	98.984370 
2391.013296  	98.945668 
2392.450203  	98.912132 
2393.887110  	98.858303 
2395.324017  	98.820474 
2396.760924  	98.821994 
2398.197831  	98.847439 
2399.634738  	98.859753 
2401.071645  	98.853117 
2402.508552  	98.893453 
2403.945459  	98.930465 
2405.382366  	98.887087 
2406.819273  	98.853821 
2408.256180  	98.864416 
2409.693087  	98.871687 
2411.129994  	98.886109 
2412.566901  	98.883119 
2414.003809  	98.874644 
2415.440716  	98.912008 
2416.877623  	98.929620 
2418.314530  	98.897211 
2419.751437  	98.893411 
2421.188344  	98.923871 
2422.625251  	98.953952 
2424.062158  	99.002496 
2425.499065  	99.063485 
2426.935972  	99.090575 
2428.372879  	99.075558 
2429.809786  	99.042425 
2431.246693  	99.025161 
2432.683600  	99.053406 
2434.120507  	99.097646 
2435.557414  	99.119436 
2436.994321  	99.129555 
2438.431228  	99.121165 
2439.868135  	99.091012 
2441.305042  	99.060766 
2442.741949  	99.026923 
2444.178856  	99.013509 
2445.615763  	99.053094 
2447.052670  	99.086121 
2448.489577  	99.068298 
2449.926484  	99.060062 
2451.363391  	99.075138 
2452.800298  	99.057452 
2454.237205  	99.032616 
2455.674112  	99.040303 
2457.111019  	99.036665 
2458.547926  	99.005611 
2459.984833  	98.960813 
2461.421740  	98.918676 
2462.858648  	98.918929 
2464.295555  	98.924062 
2465.732462  	98.914657 
2467.169369  	98.947153 
2468.606276  	98.952453 
2470.043183  	98.892962 
2471.480090  	98.882046 
2472.916997  	98.905675 
2474.353904  	98.899118 
2475.790811  	98.888413 
2477.227718  	98.874926 
2478.664625  	98.880364 
2480.101532  	98.901748 
2481.538439  	98.890348 
2482.975346  	98.887530 
2484.412253  	98.890858 
2485.849160  	98.847187 
2487.286067  	98.821077 
2488.722974  	98.852944 
2490.159881  	98.872473 
2491.596788  	98.830180 
2493.033695  	98.787744 
2494.470602  	98.827212 
2495.907509  	98.863898 
2497.344416  	98.826480 
2498.781323  	98.818442 
2500.218230  	98.837610 
2501.655137  	98.813851 
2503.092044  	98.802596 
2504.528951  	98.802391 
2505.965858  	98.770240 
2507.402765  	98.747477 
2508.839672  	98.721638 
2510.276579  	98.657685 
2511.713486  	98.636116 
2513.150394  	98.688513 
2514.587301  	98.688305 
2516.024208  	98.608982 
2517.461115  	98.580848 
2518.898022  	98.604070 
2520.334929  	98.595937 
2521.771836  	98.584771 
2523.208743  	98.600526 
2524.645650  	98.613545 
2526.082557  	98.589125 
2527.519464  	98.546533 
2528.956371  	98.570797 
2530.393278  	98.631335 
2531.830185  	98.629853 
2533.267092  	98.602732 
2534.703999  	98.585454 
2536.140906  	98.579189 
2537.577813  	98.620301 
2539.014720  	98.666075 
2540.451627  	98.672945 
2541.888534  	98.669608 
2543.325441  	98.668483 
2544.762348  	98.688800 
2546.199255  	98.712307 
2547.636162  	98.690950 
2549.073069  	98.662298 
2550.509976  	98.672530 
2551.946883  	98.704239 
2553.383790  	98.715579 
2554.820697  	98.700985 
2556.257604  	98.699024 
2557.694511  	98.688977 
2559.131418  	98.660902 
2560.568325  	98.659456 
2562.005232  	98.642797 
2563.442140  	98.598932 
2564.879047  	98.568384 
2566.315954  	98.503787 
2567.752861  	98.439083 
2569.189768  	98.435768 
2570.626675  	98.415275 
2572.063582  	98.386851 
2573.500489  	98.401804 
2574.937396  	98.377175 
2576.374303  	98.321684 
2577.811210  	98.329485 
2579.248117  	98.362761 
2580.685024  	98.346363 
2582.121931  	98.290397 
2583.558838  	98.250047 
2584.995745  	98.258853 
2586.432652  	98.293339 
2587.869559  	98.307849 
2589.306466  	98.306296 
2590.743373  	98.331926 
2592.180280  	98.359869 
2593.617187  	98.338926 
2595.054094  	98.314082 
2596.491001  	98.313828 
2597.927908  	98.307624 
2599.364815  	98.311416 
2600.801722  	98.311491 
2602.238629  	98.280269 
2603.675536  	98.276383 
2605.112443  	98.303609 
2606.549350  	98.299261 
2607.986257  	98.287420 
2609.423164  	98.297816 
2610.860071  	98.295849 
2612.296979  	98.292055 
2613.733886  	98.323183 
2615.170793  	98.348631 
2616.607700  	98.329786 
2618.044607  	98.312166 
2619.481514  	98.310906 
2620.918421  	98.295423 
2622.355328  	98.291183 
2623.792235  	98.301893 
2625.229142  	98.282752 
2626.666049  	98.269394 
2628.102956  	98.301479 
2629.539863  	98.310810 
2630.976770  	98.265873 
2632.413677  	98.235807 
2633.850584  	98.244702 
2635.287491  	98.251944 
2636.724398  	98.244152 
2638.161305  	98.225723 
2639.598212  	98.191366 
2641.035119  	98.142116 
2642.472026  	98.084852 
2643.908933  	98.039175 
2645.345840  	98.012293 
2646.782747  	97.968769 
2648.219654  	97.886729 
2649.656561  	97.792863 
2651.093468  	97.720681 
2652.530375  	97.680191 
2653.967282  	97.645850 
2655.404189  	97.585471 
2656.841096  	97.521991 
2658.278003  	97.502554 
2659.714910  	97.517836 
2661.151817  	97.535887 
2662.588725  	97.568256 
2664.025632  	97.625889 
2665.462539  	97.686389 
2666.899446  	97.747038 
2668.336353  	97.812886 
2669.773260  	97.865564 
2671.210167  	97.925118 
2672.647074  	98.008115 
2674.083981  	98.064872 
2675.520888  	98.088783 
2676.957795  	98.111242 
2678.394702  	98.126527 
2679.831609  	98.147225 
2681.268516  	98.168483 
2682.705423  	98.158270 
2684.142330  	98.139936 
2685.579237  	98.128687 
2687.016144  	98.118805 
2688.453051  	98.123334 
2689.889958  	98.102923 
2691.326865  	98.032495 
2692.763772  	97.966228 
2694.200679  	97.916671 
2695.637586  	97.859976 
2697.074493  	97.808913 
2698.511400  	97.774121 
2699.948307  	97.761718 
2701.385214  	97.765939 
2702.822121  	97.749937 
2704.259028  	97.706901 
2705.695935  	97.671322 
2707.132842  	97.664161 
2708.569749  	97.667710 
2710.006656  	97.648593 
2711.443564  	97.619153 
2712.880471  	97.608736 
2714.317378  	97.590364 
2715.754285  	97.551346 
2717.191192  	97.531287 
2718.628099  	97.523816 
2720.065006  	97.501195 
2721.501913  	97.489915 
2722.938820  	97.497671 
2724.375727  	97.497958 
2725.812634  	97.503661 
2727.249541  	97.524261 
2728.686448  	97.542109 
2730.123355  	97.568843 
2731.560262  	97.604377 
2732.997169  	97.623013 
2734.434076  	97.640533 
2735.870983  	97.669217 
2737.307890  	97.677834 
2738.744797  	97.669573 
2740.181704  	97.681281 
2741.618611  	97.700582 
2743.055518  	97.697990 
2744.492425  	97.690834 
2745.929332  	97.689348 
2747.366239  	97.689227 
2748.803146  	97.707244 
2750.240053  	97.718541 
2751.676960  	97.697151 
2753.113867  	97.678469 
2754.550774  	97.659824 
2755.987681  	97.634060 
2757.424588  	97.632852 
2758.861495  	97.626009 
2760.298402  	97.600881 
2761.735310  	97.589681 
2763.172217  	97.563697 
2764.609124  	97.525024 
2766.046031  	97.495087 
2767.482938  	97.444386 
2768.919845  	97.407551 
2770.356752  	97.407761 
2771.793659  	97.392004 
2773.230566  	97.370654 
2774.667473  	97.354138 
2776.104380  	97.314930 
2777.541287  	97.279768 
2778.978194  	97.259467 
2780.415101  	97.234831 
2781.852008  	97.210303 
2783.288915  	97.190082 
2784.725822  	97.178497 
2786.162729  	97.156256 
2787.599636  	97.113218 
2789.036543  	97.088083 
2790.473450  	97.077946 
2791.910357  	97.065446 
2793.347264  	97.063194 
2794.784171  	97.044562 
2796.221078  	97.004427 
2797.657985  	96.978464 
2799.094892  	96.961606 
2800.531799  	96.928074 
2801.968706  	96.864567 
2803.405613  	96.802472 
2804.842520  	96.772417 
2806.279427  	96.724344 
2807.716334  	96.644060 
2809.153241  	96.580465 
2810.590148  	96.536491 
2812.027056  	96.503044 
2813.463963  	96.464442 
2814.900870  	96.415559 
2816.337777  	96.388907 
2817.774684  	96.356756 
2819.211591  	96.302040 
2820.648498  	96.262480 
2822.085405  	96.214037 
2823.522312  	96.165208 
2824.959219  	96.147937 
2826.396126  	96.106682 
2827.833033  	96.036571 
2829.269940  	95.958992 
2830.706847  	95.850970 
2832.143754  	95.768466 
2833.580661  	95.738475 
2835.017568  	95.685437 
2836.454475  	95.599470 
2837.891382  	95.513482 
2839.328289  	95.415885 
2840.765196  	95.303578 
2842.202103  	95.188571 
2843.639010  	95.055895 
2845.075917  	94.902575 
2846.512824  	94.768472 
2847.949731  	94.626840 
2849.386638  	94.416735 
2850.823545  	94.191396 
2852.260452  	93.973199 
2853.697359  	93.716100 
2855.134266  	93.472034 
2856.571173  	93.263574 
2858.008080  	93.038253 
2859.444987  	92.779195 
2860.881895  	92.482972 
2862.318802  	92.210810 
2863.755709  	91.996134 
2865.192616  	91.765114 
2866.629523  	91.513342 
2868.066430  	91.242079 
2869.503337  	90.930759 
2870.940244  	90.641668 
2872.377151  	90.367955 
2873.814058  	90.068708 
2875.250965  	89.762951 
2876.687872  	89.449441 
2878.124779  	89.171926 
2879.561686  	88.950337 
2880.998593  	88.749748 
2882.435500  	88.617238 
2883.872407  	88.578030 
2885.309314  	88.614831 
2886.746221  	88.714110 
2888.183128  	88.833175 
2889.620035  	88.975986 
2891.056942  	89.139870 
2892.493849  	89.303408 
2893.930756  	89.482970 
2895.367663  	89.645516 
2896.804570  	89.776665 
2898.241477  	89.912571 
2899.678384  	90.042687 
2901.115291  	90.155646 
2902.552198  	90.235703 
2903.989105  	90.283342 
2905.426012  	90.341756 
2906.862919  	90.387600 
2908.299826  	90.391276 
2909.736733  	90.361968 
2911.173641  	90.277295 
2912.610548  	90.143494 
2914.047455  	89.983503 
2915.484362  	89.834820 
2916.921269  	89.751352 
2918.358176  	89.672652 
2919.795083  	89.556876 
2921.231990  	89.461550 
2922.668897  	89.377215 
2924.105804  	89.284683 
2925.542711  	89.150498 
2926.979618  	88.927656 
2928.416525  	88.694230 
2929.853432  	88.495793 
2931.290339  	88.319889 
2932.727246  	88.240727 
2934.164153  	88.278609 
2935.601060  	88.386260 
2937.037967  	88.547299 
2938.474874  	88.774116 
2939.911781  	89.086791 
2941.348688  	89.471859 
2942.785595  	89.908413 
2944.222502  	90.328209 
2945.659409  	90.649271 
2947.096316  	90.860623 
2948.533223  	90.916622 
2949.970130  	90.796918 
2951.407037  	90.524549 
2952.843944  	90.026255 
2954.280851  	89.284131 
2955.717758  	88.335593 
2957.154665  	87.076045 
2958.591572  	85.434140 
2960.028479  	83.411485 
2961.465387  	80.966351 
2962.902294  	78.166324 
2964.339201  	75.064785 
2965.776108  	71.786086 
2967.213015  	68.786946 
2968.649922  	66.455214 
2970.086829  	65.233521 
2971.523736  	65.443693 
2972.960643  	66.757131 
2974.397550  	68.862385 
2975.834457  	71.462004 
2977.271364  	74.223477 
2978.708271  	77.064289 
2980.145178  	79.825687 
2981.582085  	82.443692 
2983.018992  	84.894595 
2984.455899  	86.988778 
2985.892806  	88.734282 
2987.329713  	90.235388 
2988.766620  	91.474968 
2990.203527  	92.451338 
2991.640434  	93.227820 
2993.077341  	93.875159 
2994.514248  	94.390745 
2995.951155  	94.792610 
2997.388062  	95.161411 
2998.824969  	95.465684 
3000.261876  	95.685357 
3001.698783  	95.897567 
3003.135690  	96.079187 
3004.572597  	96.201984 
3006.009504  	96.316215 
3007.446411  	96.423468 
3008.883318  	96.522440 
3010.320226  	96.609964 
3011.757133  	96.655096 
3013.194040  	96.677223 
3014.630947  	96.702397 
3016.067854  	96.735635 
3017.504761  	96.785106 
3018.941668  	96.840068 
3020.378575  	96.891877 
3021.815482  	96.922076 
3023.252389  	96.926458 
3024.689296  	96.932829 
3026.126203  	96.927274 
3027.563110  	96.915707 
3029.000017  	96.928862 
3030.436924  	96.938972 
3031.873831  	96.955831 
3033.310738  	96.984041 
3034.747645  	96.965150 
3036.184552  	96.935783 
3037.621459  	96.943189 
3039.058366  	96.941027 
3040.495273  	96.927559 
3041.932180  	96.931883 
3043.369087  	96.945474 
3044.805994  	96.949698 
3046.242901  	96.932682 
3047.679808  	96.900125 
3049.116715  	96.846937 
3050.553622  	96.797984 
3051.990529  	96.798532 
3053.427436  	96.789773 
3054.864343  	96.744405 
3056.301250  	96.739024 
3057.738157  	96.736101 
3059.175064  	96.677782 
3060.611972  	96.641361 
3062.048879  	96.645504 
3063.485786  	96.622667 
3064.922693  	96.564432 
3066.359600  	96.496305 
3067.796507  	96.438106 
3069.233414  	96.415088 
3070.670321  	96.414847 
3072.107228  	96.389511 
3073.544135  	96.340781 
3074.981042  	96.305354 
3076.417949  	96.274279 
3077.854856  	96.219354 
3079.291763  	96.138832 
3080.728670  	96.063624 
3082.165577  	96.024859 
3083.602484  	96.003811 
3085.039391  	95.982998 
3086.476298  	95.952645 
3087.913205  	95.884776 
3089.350112  	95.816219 
3090.787019  	95.778362 
3092.223926  	95.725125 
3093.660833  	95.652772 
3095.097740  	95.584679 
3096.534647  	95.527564 
3097.971554  	95.483264 
3099.408461  	95.425038 
3100.845368  	95.367815 
3102.282275  	95.318535 
3103.719182  	95.235675 
3105.156089  	95.150373 
3106.592996  	95.086162 
3108.029903  	95.035413 
3109.466811  	95.002881 
3110.903718  	94.942507 
3112.340625  	94.891110 
3113.777532  	94.860393 
3115.214439  	94.730076 
3116.651346  	94.582820 
3118.088253  	94.527131 
3119.525160  	94.472235 
3120.962067  	94.416406 
3122.398974  	94.331865 
3123.835881  	94.188854 
3125.272788  	94.106315 
3126.709695  	94.043257 
3128.146602  	93.957016 
3129.583509  	93.914401 
3131.020416  	93.830923 
3132.457323  	93.712886 
3133.894230  	93.626100 
3135.331137  	93.505306 
3136.768044  	93.410200 
3138.204951  	93.372664 
3139.641858  	93.292520 
3141.078765  	93.179338 
3142.515672  	93.078135 
3143.952579  	93.002006 
3145.389486  	92.906826 
3146.826393  	92.746023 
3148.263300  	92.628920 
3149.700207  	92.583289 
3151.137114  	92.497322 
3152.574021  	92.355097 
3154.010928  	92.203344 
3155.447835  	92.094875 
3156.884742  	91.981940 
3158.321649  	91.806887 
3159.758557  	91.694650 
3161.195464  	91.642313 
3162.632371  	91.536364 
3164.069278  	91.409127 
3165.506185  	91.260742 
3166.943092  	91.113794 
3168.379999  	90.996220 
3169.816906  	90.834562 
3171.253813  	90.676878 
3172.690720  	90.554249 
3174.127627  	90.433436 
3175.564534  	90.346550 
3177.001441  	90.208453 
3178.438348  	90.028952 
3179.875255  	89.922938 
3181.312162  	89.792216 
3182.749069  	89.604647 
3184.185976  	89.432793 
3185.622883  	89.291950 
3187.059790  	89.188240 
3188.496697  	89.032704 
3189.933604  	88.847338 
3191.370511  	88.713690 
3192.807418  	88.564122 
3194.244325  	88.455892 
3195.681232  	88.362617 
3197.118139  	88.167862 
3198.555046  	88.028705 
3199.991953  	87.943497 
3201.428860  	87.796835 
3202.865767  	87.667452 
3204.302674  	87.510427 
3205.739581  	87.333602 
3207.176488  	87.214198 
3208.613395  	87.076362 
3210.050303  	86.932996 
3211.487210  	86.790279 
3212.924117  	86.646218 
3214.361024  	86.533651 
3215.797931  	86.344829 
3217.234838  	86.146497 
3218.671745  	86.022940 
3220.108652  	85.864904 
3221.545559  	85.735422 
3222.982466  	85.604702 
3224.419373  	85.397839 
3225.856280  	85.257593 
3227.293187  	85.132228 
3228.730094  	84.992763 
3230.167001  	84.906408 
3231.603908  	84.746547 
3233.040815  	84.566871 
3234.477722  	84.442218 
3235.914629  	84.302076 
3237.351536  	84.184721 
3238.788443  	84.038005 
3240.225350  	83.899985 
3241.662257  	83.839047 
3243.099164  	83.689447 
3244.536071  	83.521928 
3245.972978  	83.400813 
3247.409885  	83.203679 
3248.846792  	83.081720 
3250.283699  	83.029314 
3251.720606  	82.880702 
3253.157513  	82.728366 
3254.594420  	82.613093 
3256.031327  	82.519159 
3257.468234  	82.417377 
3258.905142  	82.267783 
3260.342049  	82.164149 
3261.778956  	82.058411 
3263.215863  	81.903783 
3264.652770  	81.795411 
3266.089677  	81.683003 
3267.526584  	81.577950 
3268.963491  	81.493429 
3270.400398  	81.345130 
3271.837305  	81.210821 
3273.274212  	81.110300 
3274.711119  	81.036250 
3276.148026  	81.001720 
3277.584933  	80.862026 
3279.021840  	80.681235 
3280.458747  	80.598646 
3281.895654  	80.559683 
3283.332561  	80.529931 
3284.769468  	80.402841 
3286.206375  	80.233439 
3287.643282  	80.182539 
3289.080189  	80.086199 
3290.517096  	79.939501 
3291.954003  	79.882121 
3293.390910  	79.816773 
3294.827817  	79.743082 
3296.264724  	79.666436 
3297.701631  	79.571632 
3299.138538  	79.530661 
3300.575445  	79.483925 
3302.012352  	79.438930 
3303.449259  	79.386404 
3304.886166  	79.260916 
3306.323073  	79.208568 
3307.759980  	79.193659 
3309.196888  	79.106576 
3310.633795  	79.046481 
3312.070702  	78.980627 
3313.507609  	78.923276 
3314.944516  	78.891432 
3316.381423  	78.808481 
3317.818330  	78.785624 
3319.255237  	78.770715 
3320.692144  	78.696540 
3322.129051  	78.685560 
3323.565958  	78.625713 
3325.002865  	78.554932 
3326.439772  	78.583999 
3327.876679  	78.538133 
3329.313586  	78.485083 
3330.750493  	78.480851 
3332.187400  	78.432082 
3333.624307  	78.437739 
3335.061214  	78.428746 
3336.498121  	78.359202 
3337.935028  	78.331919 
3339.371935  	78.297024 
3340.808842  	78.311716 
3342.245749  	78.359615 
3343.682656  	78.359345 
3345.119563  	78.410863 
3346.556470  	78.438385 
3347.993377  	78.438662 
3349.430284  	78.493940 
3350.867191  	78.479558 
3352.304098  	78.487543 
3353.741005  	78.561247 
3355.177912  	78.584574 
3356.614819  	78.658765 
3358.051726  	78.719982 
3359.488634  	78.734414 
3360.925541  	78.830735 
3362.362448  	78.885977 
3363.799355  	78.900084 
3365.236262  	78.973041 
3366.673169  	79.075627 
3368.110076  	79.209614 
3369.546983  	79.258172 
3370.983890  	79.276794 
3372.420797  	79.398086 
3373.857704  	79.471184 
3375.294611  	79.554017 
3376.731518  	79.719880 
3378.168425  	79.833368 
3379.605332  	79.921048 
3381.042239  	79.972378 
3382.479146  	80.055094 
3383.916053  	80.227346 
3385.352960  	80.310896 
3386.789867  	80.418490 
3388.226774  	80.578664 
3389.663681  	80.612210 
3391.100588  	80.698408 
3392.537495  	80.837343 
3393.974402  	80.948331 
3395.411309  	81.144261 
3396.848216  	81.267953 
3398.285123  	81.366968 
3399.722030  	81.572137 
3401.158937  	81.691162 
3402.595844  	81.798751 
3404.032751  	81.979311 
3405.469658  	82.158934 
3406.906565  	82.370513 
3408.343473  	82.516256 
3409.780380  	82.628897 
3411.217287  	82.759963 
3412.654194  	82.831277 
3414.091101  	83.038278 
3415.528008  	83.313546 
3416.964915  	83.408347 
3418.401822  	83.484282 
3419.838729  	83.595558 
3421.275636  	83.751212 
3422.712543  	84.000433 
3424.149450  	84.147707 
3425.586357  	84.243070 
3427.023264  	84.395375 
3428.460171  	84.542544 
3429.897078  	84.735967 
3431.333985  	84.896252 
3432.770892  	85.006087 
3434.207799  	85.179253 
3435.644706  	85.309880 
3437.081613  	85.427482 
3438.518520  	85.632329 
3439.955427  	85.835174 
3441.392334  	85.991257 
3442.829241  	86.092185 
3444.266148  	86.232037 
3445.703055  	86.428161 
3447.139962  	86.546869 
3448.576869  	86.711966 
3450.013776  	86.934891 
3451.450683  	87.059498 
3452.887590  	87.191339 
3454.324497  	87.358673 
3455.761404  	87.530224 
3457.198311  	87.713953 
3458.635219  	87.816721 
3460.072126  	87.925654 
3461.509033  	88.097115 
3462.945940  	88.264453 
3464.382847  	88.457982 
3465.819754  	88.573587 
3467.256661  	88.656092 
3468.693568  	88.844049 
3470.130475  	88.988477 
3471.567382  	89.127410 
3473.004289  	89.302970 
3474.441196  	89.408379 
3475.878103  	89.584856 
3477.315010  	89.760959 
3478.751917  	89.832993 
3480.188824  	89.991709 
3481.625731  	90.146594 
3483.062638  	90.250026 
3484.499545  	90.418578 
3485.936452  	90.496745 
3487.373359  	90.526912 
3488.810266  	90.676956 
3490.247173  	90.887061 
3491.684080  	91.077069 
3493.120987  	91.161433 
3494.557894  	91.221020 
3495.994801  	91.349199 
3497.431708  	91.423021 
3498.868615  	91.528888 
3500.305522  	91.695362 
3501.742429  	91.769334 
3503.179336  	91.888355 
3504.616243  	92.070005 
3506.053150  	92.151283 
3507.490058  	92.255503 
3508.926965  	92.398395 
3510.363872  	92.476134 
3511.800779  	92.544761 
3513.237686  	92.653229 
3514.674593  	92.785866 
3516.111500  	92.906370 
3517.548407  	93.003131 
3518.985314  	93.094946 
3520.422221  	93.196278 
3521.859128  	93.344087 
3523.296035  	93.498515 
3524.732942  	93.608552 
3526.169849  	93.699075 
3527.606756  	93.751743 
3529.043663  	93.834594 
3530.480570  	93.948287 
3531.917477  	93.979181 
3533.354384  	94.086332 
3534.791291  	94.276914 
3536.228198  	94.325439 
3537.665105  	94.381280 
3539.102012  	94.580334 
3540.538919  	94.732087 
3541.975826  	94.819936 
3543.412733  	94.926088 
3544.849640  	95.016118 
3546.286547  	95.059046 
3547.723454  	95.113098 
3549.160361  	95.218767 
3550.597268  	95.311880 
3552.034175  	95.369256 
3553.471082  	95.433545 
3554.907989  	95.498536 
3556.344896  	95.590144 
3557.781804  	95.722088 
3559.218711  	95.772539 
3560.655618  	95.850521 
3562.092525  	96.010986 
3563.529432  	96.150294 
3564.966339  	96.221081 
3566.403246  	96.177647 
3567.840153  	96.067468 
3569.277060  	96.158890 
3570.713967  	96.321077 
3572.150874  	96.378882 
3573.587781  	96.432223 
3575.024688  	96.606339 
3576.461595  	96.780003 
3577.898502  	96.801944 
3579.335409  	96.819305 
3580.772316  	96.979379 
3582.209223  	97.102528 
3583.646130  	97.186117 
3585.083037  	97.378534 
3586.519944  	97.431535 
3587.956851  	97.199336 
3589.393758  	97.158631 
3590.830665  	97.248791 
3592.267572  	97.305509 
3593.704479  	97.478812 
3595.141386  	97.649460 
3596.578293  	97.613673 
3598.015200  	97.474254 
3599.452107  	97.356677 
3600.889014  	97.361034 
3602.325921  	97.538015 
3603.762828  	97.779842 
3605.199735  	97.981139 
3606.636642  	98.041296 
3608.073550  	97.964172 
3609.510457  	97.979562 
3610.947364  	98.109410 
3612.384271  	98.157674 
3613.821178  	98.163517 
3615.258085  	98.198035 
3616.694992  	98.175490 
3618.131899  	98.037910 
3619.568806  	97.747199 
3621.005713  	97.646736 
3622.442620  	98.033934 
3623.879527  	98.430430 
3625.316434  	98.481034 
3626.753341  	98.495056 
3628.190248  	98.595046 
3629.627155  	98.114479 
3631.064062  	98.029182 
3632.500969  	98.378007 
3633.937876  	98.382969 
3635.374783  	98.289200 
3636.811690  	98.492155 
3638.248597  	98.560283 
3639.685504  	98.444602 
3641.122411  	98.525289 
3642.559318  	98.727981 
3643.996225  	98.911213 
3645.433132  	99.163848 
3646.870039  	99.432233 
3648.306946  	99.348518 
3649.743853  	99.103585 
3651.180760  	98.886229 
3652.617667  	98.448343 
3654.054574  	98.400065 
3655.491481  	98.758991 
3656.928389  	98.851956 
3658.365296  	98.649139 
3659.802203  	98.780022 
3661.239110  	98.845971 
3662.676017  	98.836205 
3664.112924  	99.156266 
3665.549831  	99.356869 
3666.986738  	99.306609 
3668.423645  	99.587420 
3669.860552  	99.889214 
3671.297459  	99.351354 
3672.734366  	99.155139 
3674.171273  	99.380506 
3675.608180  	98.986471 
3677.045087  	98.393527 
3678.481994  	98.701755 
3679.918901  	98.714577 
3681.355808  	98.570921 
3682.792715  	98.736383 
3684.229622  	99.043247 
3685.666529  	99.370556 
3687.103436  	99.698251 
3688.540343  	99.659436 
3689.977250  	99.013878 
3691.414157  	98.711833 
3692.851064  	98.762999 
3694.287971  	98.908560 
3695.724878  	99.117742 
3697.161785  	99.309004 
3698.598692  	99.361191 
3700.035599  	99.333917 
3701.472506  	99.210096 
3702.909413  	99.129953 
3704.346320  	99.355182 
3705.783227  	99.613900 
3707.220135  	99.762626 
3708.657042  	99.850670 
3710.093949  	99.762753 
3711.530856  	99.518619 
3712.967763  	99.209379 
3714.404670  	98.874991 
3715.841577  	99.009352 
3717.278484  	99.473954 
3718.715391  	99.683114 
3720.152298  	99.770562 
3721.589205  	99.831935 
3723.026112  	99.414635 
3724.463019  	99.284216 
3725.899926  	99.678824 
3727.336833  	99.696687 
3728.773740  	99.636005 
3730.210647  	99.895775 
3731.647554  	100.027493 
3733.084461  	99.828274 
3734.521368  	99.666186 
3735.958275  	99.520043 
3737.395182  	99.426488 
3738.832089  	99.432860 
3740.268996  	99.414027 
3741.705903  	99.542552 
3743.142810  	100.002822 
3744.579717  	100.496519 
3746.016624  	99.963732 
3747.453531  	99.761830 
3748.890438  	99.839559 
3750.327345  	99.336016 
3751.764252  	99.011816 
3753.201159  	99.225752 
3754.638066  	99.240899 
3756.074973  	99.265868 
3757.511881  	99.312227 
3758.948788  	99.312325 
3760.385695  	99.489073 
3761.822602  	99.629336 
3763.259509  	99.669997 
3764.696416  	99.787679 
3766.133323  	99.695587 
3767.570230  	99.541011 
3769.007137  	99.556020 
3770.444044  	99.312341 
3771.880951  	99.099969 
3773.317858  	99.292241 
3774.754765  	99.417774 
3776.191672  	99.404975 
3777.628579  	99.592955 
3779.065486  	99.778317 
3780.502393  	99.564905 
3781.939300  	99.505198 
3783.376207  	99.672397 
3784.813114  	99.477903 
3786.250021  	99.240036 
3787.686928  	99.412417 
3789.123835  	99.537408 
3790.560742  	99.523178 
3791.997649  	99.546901 
3793.434556  	99.549620 
3794.871463  	99.732977 
3796.308370  	99.999367 
3797.745277  	99.844115 
3799.182184  	99.780902 
3800.619091  	100.165595 
3802.055998  	100.146550 
3803.492905  	99.363738 
3804.929812  	99.280323 
3806.366720  	99.417601 
3807.803627  	99.082485 
3809.240534  	99.062375 
3810.677441  	99.428907 
3812.114348  	99.627679 
3813.551255  	99.859755 
3814.988162  	100.324309 
3816.425069  	100.317365 
3817.861976  	99.828055 
3819.298883  	99.925306 
3820.735790  	99.977563 
3822.172697  	99.108558 
3823.609604  	98.847188 
3825.046511  	99.226171 
3826.483418  	99.415056 
3827.920325  	99.363257 
3829.357232  	99.678134 
3830.794139  	99.970350 
3832.231046  	99.848272 
3833.667953  	99.787576 
3835.104860  	99.824305 
3836.541767  	99.973683 
3837.978674  	100.303191 
3839.415581  	99.767442 
3840.852488  	98.997271 
3842.289395  	99.057369 
3843.726302  	99.136822 
3845.163209  	99.135187 
3846.600116  	99.466478 
3848.037023  	99.810009 
3849.473930  	100.092344 
3850.910837  	100.314387 
3852.347744  	100.394607 
3853.784651  	100.050292 
3855.221558  	99.403632 
3856.658466  	99.175551 
3858.095373  	99.089495 
3859.532280  	99.139432 
3860.969187  	99.401471 
3862.406094  	99.732943 
3863.843001  	99.816677 
3865.279908  	99.776497 
3866.716815  	99.882610 
3868.153722  	100.050332 
3869.590629  	99.937086 
3871.027536  	99.302724 
3872.464443  	99.368173 
3873.901350  	99.573174 
3875.338257  	99.295718 
3876.775164  	99.187184 
3878.212071  	99.524593 
3879.648978  	99.857568 
3881.085885  	99.780818 
3882.522792  	99.631067 
3883.959699  	99.801887 
3885.396606  	99.869996 
3886.833513  	99.493145 
3888.270420  	99.437835 
3889.707327  	99.627857 
3891.144234  	99.644332 
3892.581141  	99.452094 
3894.018048  	99.369637 
3895.454955  	99.471369 
3896.891862  	99.708330 
3898.328769  	99.915660 
3899.765676  	100.001185 
3901.202583  	100.012082 
3902.639490  	99.930838 
3904.076397  	99.583815 
3905.513305  	99.109863 
3906.950212  	99.049984 
3908.387119  	99.263182 
3909.824026  	99.445468 
3911.260933  	99.553989 
3912.697840  	99.637901 
3914.134747  	99.741653 
3915.571654  	99.814977 
3917.008561  	99.792020 
3918.445468  	99.719807 
3919.882375  	99.726777 
3921.319282  	99.706323 
3922.756189  	99.632542 
3924.193096  	99.551102 
3925.630003  	99.508705 
3927.066910  	99.575064 
3928.503817  	99.645464 
3929.940724  	99.661541 
3931.377631  	99.670408 
3932.814538  	99.662719 
3934.251445  	99.622898 
3935.688352  	99.616318 
3937.125259  	99.657936 
3938.562166  	99.683296 
3939.999073  	99.641822 
3941.435980  	99.696892 
3942.872887  	99.706550 
3944.309794  	99.550069 
3945.746701  	99.619431 
3947.183608  	99.818742 
3948.620515  	99.763969 
3950.057422  	99.655412 
3951.494329  	99.687558 
3952.931236  	99.677769 
3954.368143  	99.641644 
3955.805051  	99.604738 
3957.241958  	99.575940 
3958.678865  	99.652256 
3960.115772  	99.746585 
3961.552679  	99.718444 
3962.989586  	99.629094 
3964.426493  	99.627219 
3965.863400  	99.708802 
3967.300307  	99.739546 
3968.737214  	99.732120 
3970.174121  	99.746756 
3971.611028  	99.719191 
3973.047935  	99.665348 
3974.484842  	99.628836 
3975.921749  	99.608852 
3977.358656  	99.655040 
3978.795563  	99.715278 
3980.232470  	99.695157 
3981.669377  	99.647978 
3983.106284  	99.666191 
3984.543191  	99.723943 
3985.980098  	99.709895 
3987.417005  	99.660354 
3988.853912  	99.690730 
3990.290819  	99.713713 
3991.727726  	99.667528 
3993.164633  	99.647740 
3994.601540  	99.656017 
3996.038447  	99.665525 
3997.475354  	99.673590 
3998.912261  	99.670037 
4000.349168  	99.696447 