##TITLE=No Description
##DATA TYPE=INFRARED SPECTRUM
##XUNITS=1/CM
##YUNITS=%T
399.452061  	79.178805 
400.888939  	76.919706 
402.325817  	77.449995 
403.762695  	77.863893 
405.199573  	75.883493 
406.636451  	73.937513 
408.073328  	72.899680 
409.510206  	72.385478 
410.947084  	72.199129 
412.383962  	71.293709 
413.820840  	70.214144 
415.257718  	69.595128 
416.694596  	68.763325 
418.131474  	67.853066 
419.568352  	67.051572 
421.005230  	66.195602 
422.442108  	65.531340 
423.878986  	65.151295 
425.315863  	65.639238 
426.752741  	66.517020 
428.189619  	66.783629 
429.626497  	67.270453 
431.063375  	68.676024 
432.500253  	69.856057 
433.937131  	70.557673 
435.374009  	71.280383 
436.810887  	71.914027 
438.247765  	72.544241 
439.684643  	72.864058 
441.121521  	72.604351 
442.558398  	72.354407 
443.995276  	72.388227 
445.432154  	72.691731 
446.869032  	73.060146 
448.305910  	73.312061 
449.742788  	73.582427 
451.179666  	73.404641 
452.616544  	73.264834 
454.053422  	74.019149 
455.490300  	74.320526 
456.927178  	73.715037 
458.364056  	73.407934 
459.800933  	73.618568 
461.237811  	73.947843 
462.674689  	73.857415 
464.111567  	73.202280 
465.548445  	72.541376 
466.985323  	71.378219 
468.422201  	70.573902 
469.859079  	71.388920 
471.295957  	72.352916 
472.732835  	72.592010 
474.169713  	72.530089 
475.606591  	71.991666 
477.043469  	71.445509 
478.480346  	70.915616 
479.917224  	69.811175 
481.354102  	68.735308 
482.790980  	67.917227 
484.227858  	67.142685 
485.664736  	66.987728 
487.101614  	67.106089 
488.538492  	67.218970 
489.975370  	68.180273 
491.412248  	69.525524 
492.849126  	70.199012 
494.286004  	70.534109 
495.722881  	71.071496 
497.159759  	71.715088 
498.596637  	72.271547 
500.033515  	72.868862 
501.470393  	73.407696 
502.907271  	73.695924 
504.344149  	73.989335 
505.781027  	74.175667 
507.217905  	74.287912 
508.654783  	74.619570 
510.091661  	74.636660 
511.528539  	74.270564 
512.965416  	74.234025 
514.402294  	74.494257 
515.839172  	74.684586 
517.276050  	74.652059 
518.712928  	74.504743 
520.149806  	74.502689 
521.586684  	74.560270 
523.023562  	74.727236 
524.460440  	74.940025 
525.897318  	74.823572 
527.334196  	74.741256 
528.771074  	74.896692 
530.207951  	74.824106 
531.644829  	74.644652 
533.081707  	74.555802 
534.518585  	74.539706 
535.955463  	74.688312 
537.392341  	74.718159 
538.829219  	74.660950 
540.266097  	74.835798 
541.702975  	74.938325 
543.139853  	74.846056 
544.576731  	74.813822 
546.013609  	74.819793 
547.450486  	74.808078 
548.887364  	74.733684 
550.324242  	74.619131 
551.761120  	74.502986 
553.197998  	74.285405 
554.634876  	74.119060 
556.071754  	74.073094 
557.508632  	73.920894 
558.945510  	73.815029 
560.382388  	73.890872 
561.819266  	73.867653 
563.256144  	73.720721 
564.693021  	73.615557 
566.129899  	73.487237 
567.566777  	73.252349 
569.003655  	73.009254 
570.440533  	72.851489 
571.877411  	72.709670 
573.314289  	72.582515 
574.751167  	72.554452 
576.188045  	72.522738 
577.624923  	72.421417 
579.061801  	72.391768 
580.498679  	72.426617 
581.935556  	72.364069 
583.372434  	72.202417 
584.809312  	72.072452 
586.246190  	72.034660 
587.683068  	72.038787 
589.119946  	72.001552 
590.556824  	71.881079 
591.993702  	71.738071 
593.430580  	71.658265 
594.867458  	71.609678 
596.304336  	71.548215 
597.741214  	71.501891 
599.178091  	71.482458 
600.614969  	71.488258 
602.051847  	71.516302 
603.488725  	71.527841 
604.925603  	71.481624 
606.362481  	71.439053 
607.799359  	71.408239 
609.236237  	71.355502 
610.673115  	71.283122 
612.109993  	71.261532 
613.546871  	71.264434 
614.983749  	71.223195 
616.420626  	71.181409 
617.857504  	71.210089 
619.294382  	71.223637 
620.731260  	71.191325 
622.168138  	71.175665 
623.605016  	71.158559 
625.041894  	71.095516 
626.478772  	71.037647 
627.915650  	71.054670 
629.352528  	71.071596 
630.789406  	70.956601 
632.226284  	70.975680 
633.663161  	71.148348 
635.100039  	71.267516 
636.536917  	71.277083 
637.973795  	71.248585 
639.410673  	71.276479 
640.847551  	71.356721 
642.284429  	71.439832 
643.721307  	71.568994 
645.158185  	71.712103 
646.595063  	71.776028 
648.031941  	71.852666 
649.468819  	72.037617 
650.905696  	72.179250 
652.342574  	72.226272 
653.779452  	72.337478 
655.216330  	72.505598 
656.653208  	72.618141 
658.090086  	72.722498 
659.526964  	72.839840 
660.963842  	72.931732 
662.400720  	73.040790 
663.837598  	73.205850 
665.274476  	73.306920 
666.711354  	73.394081 
668.148231  	73.616157 
669.585109  	73.811744 
671.021987  	73.920152 
672.458865  	74.081506 
673.895743  	74.235241 
675.332621  	74.354297 
676.769499  	74.553954 
678.206377  	74.748978 
679.643255  	74.902104 
681.080133  	75.088502 
682.517011  	75.277551 
683.953889  	75.431800 
685.390766  	75.591147 
686.827644  	75.773845 
688.264522  	75.986079 
689.701400  	76.182240 
691.138278  	76.357636 
692.575156  	76.538987 
694.012034  	76.699592 
695.448912  	76.886034 
696.885790  	77.086244 
698.322668  	77.250273 
699.759546  	77.390028 
701.196424  	77.529978 
702.633301  	77.716297 
704.070179  	77.931074 
705.507057  	78.129544 
706.943935  	78.312278 
708.380813  	78.489007 
709.817691  	78.669370 
711.254569  	78.878305 
712.691447  	79.084648 
714.128325  	79.266280 
715.565203  	79.461872 
717.002081  	79.646584 
718.438959  	79.826692 
719.875837  	80.081619 
721.312714  	80.289479 
722.749592  	80.433053 
724.186470  	80.620627 
725.623348  	80.818703 
727.060226  	80.962263 
728.497104  	81.071066 
729.933982  	81.245996 
731.370860  	81.494137 
732.807738  	81.678614 
734.244616  	81.829717 
735.681494  	82.026800 
737.118372  	82.222574 
738.555249  	82.401563 
739.992127  	82.578164 
741.429005  	82.760337 
742.865883  	82.951640 
744.302761  	83.105906 
745.739639  	83.262116 
747.176517  	83.456781 
748.613395  	83.615488 
750.050273  	83.757033 
751.487151  	83.935019 
752.924029  	84.123601 
754.360907  	84.298084 
755.797784  	84.449690 
757.234662  	84.632793 
758.671540  	84.864431 
760.108418  	85.049476 
761.545296  	85.168805 
762.982174  	85.278935 
764.419052  	85.444905 
765.855930  	85.682536 
767.292808  	85.878443 
768.729686  	86.022998 
770.166564  	86.207734 
771.603442  	86.388680 
773.040319  	86.538328 
774.477197  	86.676651 
775.914075  	86.811763 
777.350953  	86.991893 
778.787831  	87.146199 
780.224709  	87.219164 
781.661587  	87.327662 
783.098465  	87.480117 
784.535343  	87.639731 
785.972221  	87.818111 
787.409099  	87.935577 
788.845977  	88.034335 
790.282854  	88.190780 
791.719732  	88.294505 
793.156610  	88.358784 
794.593488  	88.434183 
796.030366  	88.421249 
797.467244  	88.375998 
798.904122  	88.335173 
800.341000  	88.179283 
801.777878  	87.952963 
803.214756  	87.621822 
804.651634  	86.985327 
806.088512  	85.979844 
807.525389  	84.442404 
808.962267  	82.039142 
810.399145  	78.303514 
811.836023  	72.797439 
813.272901  	66.149769 
814.709779  	60.115618 
816.146657  	56.900863 
817.583535  	58.278519 
819.020413  	64.067675 
820.457291  	71.890414 
821.894169  	78.699534 
823.331047  	83.239175 
824.767924  	85.934346 
826.204802  	87.567152 
827.641680  	88.634882 
829.078558  	89.321231 
830.515436  	89.790525 
831.952314  	90.169742 
833.389192  	90.500843 
834.826070  	90.791393 
836.262948  	91.014706 
837.699826  	91.199732 
839.136704  	91.360344 
840.573582  	91.494706 
842.010459  	91.667542 
843.447337  	91.828068 
844.884215  	91.902827 
846.321093  	91.956384 
847.757971  	92.017571 
849.194849  	92.104129 
850.631727  	92.226483 
852.068605  	92.305786 
853.505483  	92.338567 
854.942361  	92.398163 
856.379239  	92.497650 
857.816117  	92.573761 
859.252994  	92.586907 
860.689872  	92.624213 
862.126750  	92.694505 
863.563628  	92.703913 
865.000506  	92.702973 
866.437384  	92.724651 
867.874262  	92.751242 
869.311140  	92.841780 
870.748018  	92.915452 
872.184896  	92.886222 
873.621774  	92.863212 
875.058652  	92.875036 
876.495529  	92.866562 
877.932407  	92.856313 
879.369285  	92.861466 
880.806163  	92.865685 
882.243041  	92.847889 
883.679919  	92.816336 
885.116797  	92.758865 
886.553675  	92.664174 
887.990553  	92.620734 
889.427431  	92.608655 
890.864309  	92.517870 
892.301187  	92.428506 
893.738064  	92.379229 
895.174942  	92.276426 
896.611820  	92.156476 
898.048698  	92.055631 
899.485576  	91.937283 
900.922454  	91.805184 
902.359332  	91.641661 
903.796210  	91.460061 
905.233088  	91.297229 
906.669966  	91.113655 
908.106844  	90.891693 
909.543722  	90.625004 
910.980599  	90.292351 
912.417477  	89.910545 
913.854355  	89.448666 
915.291233  	88.892990 
916.728111  	88.289297 
918.164989  	87.637164 
919.601867  	87.018218 
921.038745  	86.499494 
922.475623  	85.979555 
923.912501  	85.426039 
925.349379  	84.730359 
926.786257  	83.737462 
928.223134  	82.556525 
929.660012  	81.153081 
931.096890  	79.428104 
932.533768  	77.539739 
933.970646  	75.437793 
935.407524  	73.148819 
936.844402  	70.804319 
938.281280  	67.997528 
939.718158  	64.412268 
941.155036  	59.921728 
942.591914  	54.447955 
944.028792  	48.559698 
945.465670  	42.665835 
946.902547  	37.176078 
948.339425  	33.043714 
949.776303  	30.734878 
951.213181  	31.040713 
952.650059  	34.518624 
954.086937  	40.373088 
955.523815  	47.869692 
956.960693  	56.260086 
958.397571  	64.558184 
959.834449  	71.934459 
961.271327  	77.757441 
962.708205  	81.860817 
964.145082  	84.644193 
965.581960  	86.599305 
967.018838  	87.963282 
968.455716  	88.974155 
969.892594  	89.751443 
971.329472  	90.288744 
972.766350  	90.723362 
974.203228  	91.094349 
975.640106  	91.357142 
977.076984  	91.578349 
978.513862  	91.793797 
979.950740  	92.012116 
981.387617  	92.204834 
982.824495  	92.362526 
984.261373  	92.559249 
985.698251  	92.746460 
987.135129  	92.899261 
988.572007  	93.071686 
990.008885  	93.170981 
991.445763  	93.232934 
992.882641  	93.362265 
994.319519  	93.442674 
995.756397  	93.467803 
997.193275  	93.528978 
998.630152  	93.585143 
1000.067030  	93.602721 
1001.503908  	93.574403 
1002.940786  	93.553100 
1004.377664  	93.581224 
1005.814542  	93.576437 
1007.251420  	93.548588 
1008.688298  	93.546497 
1010.125176  	93.538386 
1011.562054  	93.532322 
1012.998932  	93.500642 
1014.435810  	93.458338 
1015.872687  	93.469819 
1017.309565  	93.444839 
1018.746443  	93.376244 
1020.183321  	93.356545 
1021.620199  	93.323674 
1023.057077  	93.259463 
1024.493955  	93.207346 
1025.930833  	93.154098 
1027.367711  	93.125632 
1028.804589  	93.097007 
1030.241467  	93.037167 
1031.678345  	92.993301 
1033.115222  	92.922130 
1034.552100  	92.805688 
1035.988978  	92.736854 
1037.425856  	92.704270 
1038.862734  	92.643612 
1040.299612  	92.549981 
1041.736490  	92.432357 
1043.173368  	92.328856 
1044.610246  	92.231977 
1046.047124  	92.082992 
1047.484002  	91.931305 
1048.920880  	91.814037 
1050.357757  	91.647258 
1051.794635  	91.445899 
1053.231513  	91.277494 
1054.668391  	91.109281 
1056.105269  	90.942586 
1057.542147  	90.751916 
1058.979025  	90.467461 
1060.415903  	90.163507 
1061.852781  	89.877391 
1063.289659  	89.547685 
1064.726537  	89.206191 
1066.163415  	88.851389 
1067.600292  	88.454699 
1069.037170  	88.063367 
1070.474048  	87.653535 
1071.910926  	87.169825 
1073.347804  	86.634630 
1074.784682  	86.062595 
1076.221560  	85.425957 
1077.658438  	84.728231 
1079.095316  	83.984631 
1080.532194  	83.122031 
1081.969072  	82.111473 
1083.405950  	81.002624 
1084.842827  	79.766863 
1086.279705  	78.429720 
1087.716583  	76.993077 
1089.153461  	75.378065 
1090.590339  	73.661697 
1092.027217  	71.861721 
1093.464095  	69.998044 
1094.900973  	68.162410 
1096.337851  	66.256705 
1097.774729  	64.382800 
1099.211607  	62.647892 
1100.648485  	61.021943 
1102.085362  	59.732466 
1103.522240  	58.726607 
1104.959118  	58.012724 
1106.395996  	57.786685 
1107.832874  	57.776346 
1109.269752  	58.005093 
1110.706630  	58.521925 
1112.143508  	59.061819 
1113.580386  	59.724285 
1115.017264  	60.374472 
1116.454142  	60.812426 
1117.891020  	61.010524 
1119.327897  	60.552330 
1120.764775  	59.339474 
1122.201653  	57.522177 
1123.638531  	55.188258 
1125.075409  	53.050499 
1126.512287  	51.636297 
1127.949165  	51.158461 
1129.386043  	51.996192 
1130.822921  	53.844457 
1132.259799  	56.457467 
1133.696677  	59.688313 
1135.133555  	62.950726 
1136.570432  	65.969897 
1138.007310  	68.494465 
1139.444188  	70.319494 
1140.881066  	71.560019 
1142.317944  	72.233655 
1143.754822  	72.443420 
1145.191700  	72.293062 
1146.628578  	71.711350 
1148.065456  	70.860085 
1149.502334  	69.775526 
1150.939212  	68.349559 
1152.376090  	66.751853 
1153.812967  	64.961421 
1155.249845  	63.080080 
1156.686723  	61.463969 
1158.123601  	60.160864 
1159.560479  	59.509895 
1160.997357  	59.814846 
1162.434235  	61.018900 
1163.871113  	63.307412 
1165.307991  	66.526653 
1166.744869  	70.332840 
1168.181747  	74.418157 
1169.618625  	78.242632 
1171.055502  	81.520933 
1172.492380  	84.169718 
1173.929258  	86.143487 
1175.366136  	87.605773 
1176.803014  	88.705746 
1178.239892  	89.450300 
1179.676770  	89.960599 
1181.113648  	90.352629 
1182.550526  	90.597752 
1183.987404  	90.746002 
1185.424282  	90.837382 
1186.861160  	90.872220 
1188.298038  	90.953063 
1189.734915  	91.099192 
1191.171793  	91.263009 
1192.608671  	91.445802 
1194.045549  	91.607847 
1195.482427  	91.745259 
1196.919305  	91.879865 
1198.356183  	91.972789 
1199.793061  	92.017385 
1201.229939  	92.023741 
1202.666817  	92.027545 
1204.103695  	92.059372 
1205.540573  	92.047616 
1206.977450  	92.000873 
1208.414328  	91.991809 
1209.851206  	91.984129 
1211.288084  	91.959482 
1212.724962  	91.929556 
1214.161840  	91.891730 
1215.598718  	91.856726 
1217.035596  	91.797389 
1218.472474  	91.732320 
1219.909352  	91.703060 
1221.346230  	91.674836 
1222.783108  	91.629936 
1224.219985  	91.560677 
1225.656863  	91.480581 
1227.093741  	91.433470 
1228.530619  	91.389978 
1229.967497  	91.349195 
1231.404375  	91.325704 
1232.841253  	91.273294 
1234.278131  	91.219776 
1235.715009  	91.176616 
1237.151887  	91.106097 
1238.588765  	91.035799 
1240.025643  	90.949803 
1241.462520  	90.848262 
1242.899398  	90.764658 
1244.336276  	90.643709 
1245.773154  	90.503880 
1247.210032  	90.396738 
1248.646910  	90.276309 
1250.083788  	90.136489 
1251.520666  	89.988585 
1252.957544  	89.842746 
1254.394422  	89.722789 
1255.831300  	89.590285 
1257.268178  	89.438354 
1258.705055  	89.281522 
1260.141933  	89.093524 
1261.578811  	88.895722 
1263.015689  	88.693324 
1264.452567  	88.464308 
1265.889445  	88.221061 
1267.326323  	87.942888 
1268.763201  	87.615785 
1270.200079  	87.259611 
1271.636957  	86.876850 
1273.073835  	86.466528 
1274.510713  	86.021742 
1275.947590  	85.535635 
1277.384468  	85.002994 
1278.821346  	84.427145 
1280.258224  	83.804518 
1281.695102  	83.120318 
1283.131980  	82.410528 
1284.568858  	81.665498 
1286.005736  	80.860585 
1287.442614  	80.069199 
1288.879492  	79.301502 
1290.316370  	78.561295 
1291.753248  	77.852308 
1293.190125  	77.122766 
1294.627003  	76.458089 
1296.063881  	75.851715 
1297.500759  	75.253276 
1298.937637  	74.781484 
1300.374515  	74.374581 
1301.811393  	74.019187 
1303.248271  	73.816873 
1304.685149  	73.685856 
1306.122027  	73.646704 
1307.558905  	73.698439 
1308.995783  	73.792333 
1310.432660  	74.006527 
1311.869538  	74.266861 
1313.306416  	74.598267 
1314.743294  	75.082682 
1316.180172  	75.599436 
1317.617050  	76.211964 
1319.053928  	76.961622 
1320.490806  	77.765691 
1321.927684  	78.653774 
1323.364562  	79.547646 
1324.801440  	80.332215 
1326.238318  	81.088547 
1327.675195  	81.663987 
1329.112073  	82.082714 
1330.548951  	82.320670 
1331.985829  	82.275563 
1333.422707  	81.965274 
1334.859585  	81.432200 
1336.296463  	80.634862 
1337.733341  	79.714959 
1339.170219  	78.851907 
1340.607097  	78.454231 
1342.043975  	78.875311 
1343.480853  	79.869891 
1344.917730  	81.210653 
1346.354608  	82.504902 
1347.791486  	83.069039 
1349.228364  	83.601696 
1350.665242  	84.296658 
1352.102120  	84.723910 
1353.538998  	84.318245 
1354.975876  	83.636510 
1356.412754  	82.918198 
1357.849632  	82.172951 
1359.286510  	80.414635 
1360.723388  	78.341447 
1362.160265  	75.928717 
1363.597143  	73.270982 
1365.034021  	71.086019 
1366.470899  	69.504156 
1367.907777  	69.273561 
1369.344655  	69.759029 
1370.781533  	70.393292 
1372.218411  	70.646318 
1373.655289  	69.965686 
1375.092167  	68.105132 
1376.529045  	66.169239 
1377.965923  	64.585285 
1379.402800  	64.622661 
1380.839678  	66.693305 
1382.276556  	69.656416 
1383.713434  	72.894025 
1385.150312  	75.987700 
1386.587190  	78.365864 
1388.024068  	80.403330 
1389.460946  	81.516523 
1390.897824  	82.711913 
1392.334702  	82.796021 
1393.771580  	82.738882 
1395.208458  	82.640725 
1396.645335  	82.459851 
1398.082213  	82.227730 
1399.519091  	82.003458 
1400.955969  	81.750689 
1402.392847  	81.495154 
1403.829725  	81.203887 
1405.266603  	80.941118 
1406.703481  	80.774084 
1408.140359  	80.653915 
1409.577237  	80.673422 
1411.014115  	80.830991 
1412.450993  	81.093309 
1413.887871  	81.431716 
1415.324748  	81.789655 
1416.761626  	82.089835 
1418.198504  	82.409587 
1419.635382  	82.851284 
1421.072260  	83.245221 
1422.509138  	83.452155 
1423.946016  	83.643937 
1425.382894  	83.960186 
1426.819772  	84.197595 
1428.256650  	84.415232 
1429.693528  	84.697669 
1431.130406  	84.950129 
1432.567283  	85.198555 
1434.004161  	85.434999 
1435.441039  	85.635760 
1436.877917  	85.901100 
1438.314795  	86.156837 
1439.751673  	86.342911 
1441.188551  	86.524436 
1442.625429  	86.676498 
1444.062307  	86.778377 
1445.499185  	86.593706 
1446.936063  	86.233380 
1448.372941  	85.746398 
1449.809818  	85.083618 
1451.246696  	84.407523 
1452.683574  	83.693917 
1454.120452  	83.083921 
1455.557330  	82.686965 
1456.994208  	82.331134 
1458.431086  	81.794345 
1459.867964  	81.132375 
1461.304842  	80.432375 
1462.741720  	79.683998 
1464.178598  	78.944680 
1465.615476  	78.414038 
1467.052353  	78.093110 
1468.489231  	78.449214 
1469.926109  	79.521229 
1471.362987  	80.726423 
1472.799865  	82.597382 
1474.236743  	84.190134 
1475.673621  	85.036870 
1477.110499  	86.097167 
1478.547377  	86.875394 
1479.984255  	87.461170 
1481.421133  	88.122902 
1482.858011  	88.623991 
1484.294888  	89.132476 
1485.731766  	89.445448 
1487.168644  	89.694741 
1488.605522  	90.004880 
1490.042400  	90.257954 
1491.479278  	90.545517 
1492.916156  	90.832540 
1494.353034  	91.024577 
1495.789912  	91.254951 
1497.226790  	91.460554 
1498.663668  	91.620586 
1500.100546  	91.844936 
1501.537423  	92.023890 
1502.974301  	92.203264 
1504.411179  	92.309712 
1505.848057  	92.356205 
1507.284935  	92.406189 
1508.721813  	92.508443 
1510.158691  	92.590949 
1511.595569  	92.696008 
1513.032447  	92.758995 
1514.469325  	92.794076 
1515.906203  	92.867619 
1517.343081  	92.907540 
1518.779958  	92.981639 
1520.216836  	93.037424 
1521.653714  	93.062888 
1523.090592  	93.159124 
1524.527470  	93.209883 
1525.964348  	93.263532 
1527.401226  	93.331066 
1528.838104  	93.368508 
1530.274982  	93.434468 
1531.711860  	93.446652 
1533.148738  	93.430829 
1534.585616  	93.485277 
1536.022493  	93.486856 
1537.459371  	93.493116 
1538.896249  	93.538580 
1540.333127  	93.557102 
1541.770005  	93.595330 
1543.206883  	93.605268 
1544.643761  	93.573871 
1546.080639  	93.631840 
1547.517517  	93.664458 
1548.954395  	93.651173 
1550.391273  	93.658139 
1551.828151  	93.683420 
1553.265028  	93.715059 
1554.701906  	93.717393 
1556.138784  	93.731704 
1557.575662  	93.786245 
1559.012540  	93.772235 
1560.449418  	93.764920 
1561.886296  	93.811655 
1563.323174  	93.806817 
1564.760052  	93.813050 
1566.196930  	93.841305 
1567.633808  	93.850292 
1569.070686  	93.860234 
1570.507563  	93.836927 
1571.944441  	93.847087 
1573.381319  	93.880595 
1574.818197  	93.887143 
1576.255075  	93.879237 
1577.691953  	93.891719 
1579.128831  	93.879516 
1580.565709  	93.882486 
1582.002587  	93.874040 
1583.439465  	93.873260 
1584.876343  	93.881475 
1586.313221  	93.861103 
1587.750098  	93.857247 
1589.186976  	93.863639 
1590.623854  	93.847227 
1592.060732  	93.848673 
1593.497610  	93.861278 
1594.934488  	93.862171 
1596.371366  	93.858107 
1597.808244  	93.846732 
1599.245122  	93.867904 
1600.682000  	93.877171 
1602.118878  	93.799047 
1603.555756  	93.807109 
1604.992633  	93.835201 
1606.429511  	93.798004 
1607.866389  	93.783790 
1609.303267  	93.766514 
1610.740145  	93.788882 
1612.177023  	93.810414 
1613.613901  	93.738200 
1615.050779  	93.737039 
1616.487657  	93.760497 
1617.924535  	93.722544 
1619.361413  	93.702043 
1620.798291  	93.687395 
1622.235168  	93.645544 
1623.672046  	93.633627 
1625.108924  	93.624304 
1626.545802  	93.584374 
1627.982680  	93.523178 
1629.419558  	93.494774 
1630.856436  	93.514051 
1632.293314  	93.503487 
1633.730192  	93.472335 
1635.167070  	93.495148 
1636.603948  	93.481220 
1638.040826  	93.420541 
1639.477703  	93.402696 
1640.914581  	93.404484 
1642.351459  	93.408903 
1643.788337  	93.371873 
1645.225215  	93.317582 
1646.662093  	93.291003 
1648.098971  	93.287525 
1649.535849  	93.309922 
1650.972727  	93.331898 
1652.409605  	93.331009 
1653.846483  	93.317903 
1655.283361  	93.304193 
1656.720239  	93.285902 
1658.157116  	93.313309 
1659.593994  	93.296471 
1661.030872  	93.277984 
1662.467750  	93.297007 
1663.904628  	93.282052 
1665.341506  	93.287092 
1666.778384  	93.301967 
1668.215262  	93.299572 
1669.652140  	93.311414 
1671.089018  	93.338709 
1672.525896  	93.357644 
1673.962774  	93.364466 
1675.399651  	93.364878 
1676.836529  	93.380256 
1678.273407  	93.379597 
1679.710285  	93.364182 
1681.147163  	93.385820 
1682.584041  	93.405186 
1684.020919  	93.408606 
1685.457797  	93.496826 
1686.894675  	93.502329 
1688.331553  	93.499174 
1689.768431  	93.512460 
1691.205309  	93.528994 
1692.642186  	93.536171 
1694.079064  	93.529236 
1695.515942  	93.504412 
1696.952820  	93.471959 
1698.389698  	93.453133 
1699.826576  	93.450245 
1701.263454  	93.482126 
1702.700332  	93.451434 
1704.137210  	93.400451 
1705.574088  	93.335044 
1707.010966  	93.285435 
1708.447844  	93.259434 
1709.884721  	93.229721 
1711.321599  	93.217756 
1712.758477  	93.228308 
1714.195355  	93.247336 
1715.632233  	93.294198 
1717.069111  	93.320678 
1718.505989  	93.356290 
1719.942867  	93.416822 
1721.379745  	93.422983 
1722.816623  	93.425452 
1724.253501  	93.457518 
1725.690379  	93.467519 
1727.127256  	93.473052 
1728.564134  	93.454919 
1730.001012  	93.433144 
1731.437890  	93.420298 
1732.874768  	93.413458 
1734.311646  	93.416658 
1735.748524  	93.455441 
1737.185402  	93.425062 
1738.622280  	93.398195 
1740.059158  	93.411571 
1741.496036  	93.415096 
1742.932914  	93.377289 
1744.369791  	93.359870 
1745.806669  	93.351309 
1747.243547  	93.323282 
1748.680425  	93.281478 
1750.117303  	93.262846 
1751.554181  	93.257127 
1752.991059  	93.258050 
1754.427937  	93.231889 
1755.864815  	93.177933 
1757.301693  	93.144385 
1758.738571  	93.116538 
1760.175449  	93.063474 
1761.612326  	93.009062 
1763.049204  	92.953331 
1764.486082  	92.914808 
1765.922960  	92.881028 
1767.359838  	92.864904 
1768.796716  	92.856079 
1770.233594  	92.902261 
1771.670472  	92.936516 
1773.107350  	93.017227 
1774.544228  	93.119366 
1775.981106  	93.180248 
1777.417984  	93.229724 
1778.854861  	93.263991 
1780.291739  	93.319292 
1781.728617  	93.385497 
1783.165495  	93.408637 
1784.602373  	93.435899 
1786.039251  	93.496601 
1787.476129  	93.528512 
1788.913007  	93.496774 
1790.349885  	93.461817 
1791.786763  	93.450514 
1793.223641  	93.495993 
1794.660519  	93.506327 
1796.097396  	93.497179 
1797.534274  	93.510928 
1798.971152  	93.507600 
1800.408030  	93.485282 
1801.844908  	93.458933 
1803.281786  	93.491685 
1804.718664  	93.569702 
1806.155542  	93.578337 
1807.592420  	93.549374 
1809.029298  	93.548202 
1810.466176  	93.570124 
1811.903054  	93.610676 
1813.339931  	93.608051 
1814.776809  	93.572501 
1816.213687  	93.566956 
1817.650565  	93.554231 
1819.087443  	93.556394 
1820.524321  	93.566841 
1821.961199  	93.549997 
1823.398077  	93.519441 
1824.834955  	93.491144 
1826.271833  	93.488582 
1827.708711  	93.496995 
1829.145589  	93.470464 
1830.582466  	93.454888 
1832.019344  	93.452397 
1833.456222  	93.416752 
1834.893100  	93.423747 
1836.329978  	93.443925 
1837.766856  	93.450213 
1839.203734  	93.459251 
1840.640612  	93.442479 
1842.077490  	93.430824 
1843.514368  	93.452010 
1844.951246  	93.465155 
1846.388124  	93.462638 
1847.825001  	93.448039 
1849.261879  	93.427430 
1850.698757  	93.427878 
1852.135635  	93.409907 
1853.572513  	93.395001 
1855.009391  	93.437850 
1856.446269  	93.445154 
1857.883147  	93.404803 
1859.320025  	93.387205 
1860.756903  	93.403654 
1862.193781  	93.417152 
1863.630659  	93.404787 
1865.067536  	93.405748 
1866.504414  	93.435867 
1867.941292  	93.431385 
1869.378170  	93.395991 
1870.815048  	93.383249 
1872.251926  	93.363078 
1873.688804  	93.395246 
1875.125682  	93.460114 
1876.562560  	93.410136 
1877.999438  	93.343978 
1879.436316  	93.347200 
1880.873194  	93.382960 
1882.310072  	93.385645 
1883.746949  	93.319919 
1885.183827  	93.269207 
1886.620705  	93.310458 
1888.057583  	93.372435 
1889.494461  	93.365024 
1890.931339  	93.339420 
1892.368217  	93.394486 
1893.805095  	93.419028 
1895.241973  	93.367266 
1896.678851  	93.345995 
1898.115729  	93.364746 
1899.552607  	93.347746 
1900.989484  	93.304383 
1902.426362  	93.281469 
1903.863240  	93.289658 
1905.300118  	93.322586 
1906.736996  	93.332854 
1908.173874  	93.326565 
1909.610752  	93.338071 
1911.047630  	93.362131 
1912.484508  	93.394021 
1913.921386  	93.331719 
1915.358264  	93.289733 
1916.795142  	93.328031 
1918.232019  	93.354219 
1919.668897  	93.386659 
1921.105775  	93.379147 
1922.542653  	93.328439 
1923.979531  	93.322979 
1925.416409  	93.328579 
1926.853287  	93.306981 
1928.290165  	93.288250 
1929.727043  	93.264788 
1931.163921  	93.352828 
1932.600799  	93.495989 
1934.037677  	93.478005 
1935.474554  	93.372447 
1936.911432  	93.237220 
1938.348310  	93.172647 
1939.785188  	93.305441 
1941.222066  	93.440587 
1942.658944  	93.430874 
1944.095822  	93.376448 
1945.532700  	93.382288 
1946.969578  	93.385361 
1948.406456  	93.335300 
1949.843334  	93.261365 
1951.280212  	93.261248 
1952.717089  	93.178394 
1954.153967  	93.119269 
1955.590845  	93.238484 
1957.027723  	93.309386 
1958.464601  	93.379470 
1959.901479  	93.439837 
1961.338357  	93.280235 
1962.775235  	93.089592 
1964.212113  	93.050430 
1965.648991  	93.179461 
1967.085869  	93.424476 
1968.522747  	93.622882 
1969.959624  	93.714722 
1971.396502  	93.654633 
1972.833380  	93.464097 
1974.270258  	93.424994 
1975.707136  	93.451117 
1977.144014  	93.401589 
1978.580892  	93.424744 
1980.017770  	93.502321 
1981.454648  	93.567812 
1982.891526  	93.553702 
1984.328404  	93.457203 
1985.765282  	93.457970 
1987.202159  	93.485494 
1988.639037  	93.451953 
1990.075915  	93.461375 
1991.512793  	93.463072 
1992.949671  	93.475686 
1994.386549  	93.529941 
1995.823427  	93.503238 
1997.260305  	93.261065 
1998.697183  	93.122282 
2000.134061  	93.238648 
2001.570939  	93.374861 
2003.007817  	93.383902 
2004.444694  	93.450837 
2005.881572  	93.621843 
2007.318450  	93.697827 
2008.755328  	93.675008 
2010.192206  	93.633859 
2011.629084  	93.543024 
2013.065962  	93.360650 
2014.502840  	93.352426 
2015.939718  	93.543090 
2017.376596  	93.499989 
2018.813474  	93.487539 
2020.250352  	93.748914 
2021.687229  	93.631077 
2023.124107  	93.320276 
2024.560985  	93.338180 
2025.997863  	93.410158 
2027.434741  	93.515638 
2028.871619  	93.636325 
2030.308497  	93.552110 
2031.745375  	93.590553 
2033.182253  	93.753409 
2034.619131  	93.822891 
2036.056009  	93.818602 
2037.492887  	93.647494 
2038.929764  	93.571983 
2040.366642  	93.618751 
2041.803520  	93.470934 
2043.240398  	93.362737 
2044.677276  	93.489287 
2046.114154  	93.582680 
2047.551032  	93.446931 
2048.987910  	93.217877 
2050.424788  	93.216596 
2051.861666  	93.307395 
2053.298544  	93.269172 
2054.735422  	93.233855 
2056.172299  	93.202047 
2057.609177  	93.135526 
2059.046055  	93.136498 
2060.482933  	93.176498 
2061.919811  	93.181901 
2063.356689  	93.079655 
2064.793567  	92.976716 
2066.230445  	93.044824 
2067.667323  	93.005308 
2069.104201  	92.848154 
2070.541079  	92.952534 
2071.977957  	93.098747 
2073.414834  	93.029349 
2074.851712  	92.957635 
2076.288590  	92.944646 
2077.725468  	92.979795 
2079.162346  	92.986299 
2080.599224  	92.863254 
2082.036102  	92.808428 
2083.472980  	92.881741 
2084.909858  	92.951212 
2086.346736  	93.002787 
2087.783614  	92.944614 
2089.220492  	92.864995 
2090.657369  	92.957142 
2092.094247  	93.042121 
2093.531125  	93.015896 
2094.968003  	92.981966 
2096.404881  	92.897906 
2097.841759  	92.857058 
2099.278637  	92.958294 
2100.715515  	93.026291 
2102.152393  	93.008305 
2103.589271  	92.982979 
2105.026149  	92.959816 
2106.463027  	92.983264 
2107.899904  	93.021930 
2109.336782  	92.968797 
2110.773660  	92.879481 
2112.210538  	92.857563 
2113.647416  	92.901004 
2115.084294  	92.976893 
2116.521172  	92.985377 
2117.958050  	92.895668 
2119.394928  	92.878081 
2120.831806  	92.982050 
2122.268684  	93.034709 
2123.705562  	92.995616 
2125.142440  	92.982579 
2126.579317  	93.048651 
2128.016195  	93.140375 
2129.453073  	93.127984 
2130.889951  	93.011053 
2132.326829  	93.032988 
2133.763707  	93.231199 
2135.200585  	93.287698 
2136.637463  	93.232970 
2138.074341  	93.325783 
2139.511219  	93.324910 
2140.948097  	93.135776 
2142.384975  	93.148369 
2143.821852  	93.263996 
2145.258730  	93.270722 
2146.695608  	93.345353 
2148.132486  	93.357831 
2149.569364  	93.367097 
2151.006242  	93.686779 
2152.443120  	93.880787 
2153.879998  	93.572720 
2155.316876  	93.161719 
2156.753754  	93.159690 
2158.190632  	93.714414 
2159.627510  	94.054658 
2161.064387  	93.863996 
2162.501265  	93.807961 
2163.938143  	93.630436 
2165.375021  	93.385399 
2166.811899  	93.379604 
2168.248777  	93.387676 
2169.685655  	93.578812 
2171.122533  	93.656981 
2172.559411  	93.270771 
2173.996289  	93.309953 
2175.433167  	93.732580 
2176.870045  	93.587269 
2178.306922  	93.295214 
2179.743800  	93.338756 
2181.180678  	93.424605 
2182.617556  	93.286504 
2184.054434  	92.915551 
2185.491312  	92.699879 
2186.928190  	92.818024 
2188.365068  	93.102915 
2189.801946  	93.308872 
2191.238824  	93.171276 
2192.675702  	92.980722 
2194.112580  	93.063244 
2195.549457  	93.078163 
2196.986335  	93.003005 
2198.423213  	93.048710 
2199.860091  	93.048701 
2201.296969  	93.051241 
2202.733847  	93.169612 
2204.170725  	93.232284 
2205.607603  	93.193365 
2207.044481  	93.152045 
2208.481359  	93.100589 
2209.918237  	93.002830 
2211.355115  	93.020267 
2212.791992  	93.127157 
2214.228870  	93.085799 
2215.665748  	93.045403 
2217.102626  	93.043198 
2218.539504  	92.963780 
2219.976382  	93.091310 
2221.413260  	93.204188 
2222.850138  	92.912275 
2224.287016  	92.665138 
2225.723894  	92.728607 
2227.160772  	92.951687 
2228.597650  	93.154690 
2230.034527  	93.078784 
2231.471405  	92.946153 
2232.908283  	92.990263 
2234.345161  	92.967164 
2235.782039  	92.934063 
2237.218917  	92.980705 
2238.655795  	92.942566 
2240.092673  	92.855522 
2241.529551  	92.816492 
2242.966429  	92.885520 
2244.403307  	92.912650 
2245.840185  	92.759223 
2247.277062  	92.748622 
2248.713940  	92.863448 
2250.150818  	92.787369 
2251.587696  	92.718835 
2253.024574  	92.698724 
2254.461452  	92.702262 
2255.898330  	92.723436 
2257.335208  	92.650930 
2258.772086  	92.551152 
2260.208964  	92.578101 
2261.645842  	92.550037 
2263.082720  	92.449284 
2264.519597  	92.462273 
2265.956475  	92.493572 
2267.393353  	92.439291 
2268.830231  	92.361635 
2270.267109  	92.350555 
2271.703987  	92.368873 
2273.140865  	92.363865 
2274.577743  	92.328690 
2276.014621  	92.326520 
2277.451499  	92.299066 
2278.888377  	92.244879 
2280.325255  	92.243446 
2281.762132  	92.285069 
2283.199010  	92.287458 
2284.635888  	92.198264 
2286.072766  	92.104093 
2287.509644  	92.140082 
2288.946522  	92.187891 
2290.383400  	92.145414 
2291.820278  	92.158231 
2293.257156  	92.203136 
2294.694034  	92.168361 
2296.130912  	92.129357 
2297.567790  	92.140255 
2299.004667  	92.174610 
2300.441545  	92.226022 
2301.878423  	92.231913 
2303.315301  	92.197938 
2304.752179  	92.190067 
2306.189057  	92.156964 
2307.625935  	92.130979 
2309.062813  	92.153889 
2310.499691  	92.124612 
2311.936569  	92.078959 
2313.373447  	92.103624 
2314.810325  	92.129790 
2316.247202  	92.122313 
2317.684080  	92.089144 
2319.120958  	92.049576 
2320.557836  	92.059125 
2321.994714  	92.079080 
2323.431592  	92.084234 
2324.868470  	92.127817 
2326.305348  	92.184149 
2327.742226  	92.232916 
2329.179104  	92.283584 
2330.615982  	92.300859 
2332.052860  	92.287817 
2333.489737  	92.254946 
2334.926615  	92.182310 
2336.363493  	92.112203 
2337.800371  	92.085149 
2339.237249  	92.103430 
2340.674127  	92.197777 
2342.111005  	92.289764 
2343.547883  	92.195314 
2344.984761  	92.036874 
2346.421639  	92.097499 
2347.858517  	92.212757 
2349.295395  	92.167622 
2350.732273  	92.085712 
2352.169150  	92.074209 
2353.606028  	92.049404 
2355.042906  	91.963173 
2356.479784  	91.879162 
2357.916662  	91.884714 
2359.353540  	91.943142 
2360.790418  	91.918683 
2362.227296  	91.919190 
2363.664174  	91.975944 
2365.101052  	91.922171 
2366.537930  	91.877894 
2367.974808  	91.890744 
2369.411685  	91.835254 
2370.848563  	91.791606 
2372.285441  	91.774277 
2373.722319  	91.742462 
2375.159197  	91.747420 
2376.596075  	91.745053 
2378.032953  	91.714084 
2379.469831  	91.702807 
2380.906709  	91.705499 
2382.343587  	91.716612 
2383.780465  	91.711099 
2385.217343  	91.683669 
2386.654220  	91.688862 
2388.091098  	91.687857 
2389.527976  	91.646281 
2390.964854  	91.648797 
2392.401732  	91.656162 
2393.838610  	91.621670 
2395.275488  	91.617943 
2396.712366  	91.597266 
2398.149244  	91.524618 
2399.586122  	91.518560 
2401.023000  	91.571688 
2402.459878  	91.587699 
2403.896755  	91.583157 
2405.333633  	91.565607 
2406.770511  	91.526839 
2408.207389  	91.521530 
2409.644267  	91.547167 
2411.081145  	91.556354 
2412.518023  	91.535637 
2413.954901  	91.483843 
2415.391779  	91.464743 
2416.828657  	91.521513 
2418.265535  	91.578239 
2419.702413  	91.605991 
2421.139290  	91.613250 
2422.576168  	91.583020 
2424.013046  	91.586262 
2425.449924  	91.635481 
2426.886802  	91.657142 
2428.323680  	91.675572 
2429.760558  	91.679044 
2431.197436  	91.661421 
2432.634314  	91.711202 
2434.071192  	91.756927 
2435.508070  	91.731627 
2436.944948  	91.749327 
2438.381825  	91.797397 
2439.818703  	91.803141 
2441.255581  	91.795150 
2442.692459  	91.760114 
2444.129337  	91.708590 
2445.566215  	91.703990 
2447.003093  	91.726729 
2448.439971  	91.709944 
2449.876849  	91.665263 
2451.313727  	91.672477 
2452.750605  	91.696707 
2454.187483  	91.638681 
2455.624360  	91.565586 
2457.061238  	91.562064 
2458.498116  	91.584273 
2459.934994  	91.590420 
2461.371872  	91.549748 
2462.808750  	91.469295 
2464.245628  	91.442790 
2465.682506  	91.486125 
2467.119384  	91.487042 
2468.556262  	91.424045 
2469.993140  	91.411044 
2471.430018  	91.435217 
2472.866895  	91.400347 
2474.303773  	91.390632 
2475.740651  	91.432725 
2477.177529  	91.401992 
2478.614407  	91.355050 
2480.051285  	91.373933 
2481.488163  	91.396041 
2482.925041  	91.392903 
2484.361919  	91.336347 
2485.798797  	91.276803 
2487.235675  	91.310425 
2488.672553  	91.333456 
2490.109430  	91.310774 
2491.546308  	91.330755 
2492.983186  	91.316934 
2494.420064  	91.260225 
2495.856942  	91.238973 
2497.293820  	91.218535 
2498.730698  	91.214240 
2500.167576  	91.222775 
2501.604454  	91.198612 
2503.041332  	91.209784 
2504.478210  	91.215679 
2505.915088  	91.119163 
2507.351965  	91.031343 
2508.788843  	91.039516 
2510.225721  	91.066458 
2511.662599  	91.052074 
2513.099477  	91.014436 
2514.536355  	90.978533 
2515.973233  	90.932885 
2517.410111  	90.910207 
2518.846989  	90.931098 
2520.283867  	90.918921 
2521.720745  	90.909065 
2523.157623  	90.976316 
2524.594500  	91.003463 
2526.031378  	90.933037 
2527.468256  	90.879255 
2528.905134  	90.907251 
2530.342012  	90.969086 
2531.778890  	90.975514 
2533.215768  	90.961901 
2534.652646  	91.016772 
2536.089524  	91.055527 
2537.526402  	91.031905 
2538.963280  	91.028976 
2540.400158  	91.029980 
2541.837035  	91.015566 
2543.273913  	91.022765 
2544.710791  	91.023222 
2546.147669  	91.023941 
2547.584547  	91.057674 
2549.021425  	91.063832 
2550.458303  	91.018210 
2551.895181  	91.004023 
2553.332059  	91.028242 
2554.768937  	91.000817 
2556.205815  	90.948203 
2557.642693  	90.945980 
2559.079570  	90.943387 
2560.516448  	90.920483 
2561.953326  	90.891346 
2563.390204  	90.801857 
2564.827082  	90.712636 
2566.263960  	90.696876 
2567.700838  	90.681838 
2569.137716  	90.672275 
2570.574594  	90.689335 
2572.011472  	90.666492 
2573.448350  	90.618508 
2574.885228  	90.575553 
2576.322105  	90.536623 
2577.758983  	90.503677 
2579.195861  	90.456913 
2580.632739  	90.480244 
2582.069617  	90.578136 
2583.506495  	90.563627 
2584.943373  	90.491141 
2586.380251  	90.524427 
2587.817129  	90.560103 
2589.254007  	90.538513 
2590.690885  	90.532105 
2592.127763  	90.531951 
2593.564641  	90.517115 
2595.001518  	90.468833 
2596.438396  	90.411357 
2597.875274  	90.427701 
2599.312152  	90.453455 
2600.749030  	90.408124 
2602.185908  	90.386530 
2603.622786  	90.418185 
2605.059664  	90.434647 
2606.496542  	90.447030 
2607.933420  	90.450461 
2609.370298  	90.426095 
2610.807176  	90.423924 
2612.244053  	90.418372 
2613.680931  	90.367386 
2615.117809  	90.349927 
2616.554687  	90.367260 
2617.991565  	90.342906 
2619.428443  	90.317230 
2620.865321  	90.326033 
2622.302199  	90.342261 
2623.739077  	90.360910 
2625.175955  	90.366148 
2626.612833  	90.370645 
2628.049711  	90.379631 
2629.486588  	90.337764 
2630.923466  	90.274868 
2632.360344  	90.255205 
2633.797222  	90.254156 
2635.234100  	90.244193 
2636.670978  	90.206696 
2638.107856  	90.146623 
2639.544734  	90.093926 
2640.981612  	90.033686 
2642.418490  	89.981590 
2643.855368  	89.938548 
2645.292246  	89.848308 
2646.729123  	89.764364 
2648.166001  	89.714624 
2649.602879  	89.624155 
2651.039757  	89.539076 
2652.476635  	89.492279 
2653.913513  	89.423488 
2655.350391  	89.368427 
2656.787269  	89.346086 
2658.224147  	89.315474 
2659.661025  	89.300822 
2661.097903  	89.309298 
2662.534781  	89.329401 
2663.971658  	89.394150 
2665.408536  	89.503115 
2666.845414  	89.615204 
2668.282292  	89.703612 
2669.719170  	89.758229 
2671.156048  	89.792740 
2672.592926  	89.835369 
2674.029804  	89.888701 
2675.466682  	89.926267 
2676.903560  	89.937213 
2678.340438  	89.939478 
2679.777316  	89.949271 
2681.214193  	89.963073 
2682.651071  	89.953094 
2684.087949  	89.909286 
2685.524827  	89.858509 
2686.961705  	89.803772 
2688.398583  	89.751135 
2689.835461  	89.715927 
2691.272339  	89.657079 
2692.709217  	89.580633 
2694.146095  	89.537436 
2695.582973  	89.491592 
2697.019851  	89.436570 
2698.456728  	89.417964 
2699.893606  	89.408431 
2701.330484  	89.384520 
2702.767362  	89.359802 
2704.204240  	89.340408 
2705.641118  	89.333937 
2707.077996  	89.321043 
2708.514874  	89.294419 
2709.951752  	89.266933 
2711.388630  	89.220794 
2712.825508  	89.172281 
2714.262386  	89.150965 
2715.699263  	89.135884 
2717.136141  	89.113653 
2718.573019  	89.088338 
2720.009897  	89.079582 
2721.446775  	89.093744 
2722.883653  	89.087184 
2724.320531  	89.077191 
2725.757409  	89.104739 
2727.194287  	89.117055 
2728.631165  	89.114121 
2730.068043  	89.160317 
2731.504921  	89.214888 
2732.941798  	89.222347 
2734.378676  	89.218386 
2735.815554  	89.225755 
2737.252432  	89.224330 
2738.689310  	89.223992 
2740.126188  	89.242826 
2741.563066  	89.252483 
2742.999944  	89.241829 
2744.436822  	89.243978 
2745.873700  	89.251147 
2747.310578  	89.237870 
2748.747456  	89.217762 
2750.184333  	89.194004 
2751.621211  	89.165954 
2753.058089  	89.153418 
2754.494967  	89.140677 
2755.931845  	89.096192 
2757.368723  	89.049397 
2758.805601  	89.035522 
2760.242479  	89.020362 
2761.679357  	88.983965 
2763.116235  	88.950351 
2764.553113  	88.905628 
2765.989991  	88.852835 
2767.426868  	88.830953 
2768.863746  	88.818696 
2770.300624  	88.796671 
2771.737502  	88.784397 
2773.174380  	88.763143 
2774.611258  	88.711600 
2776.048136  	88.637156 
2777.485014  	88.570957 
2778.921892  	88.555304 
2780.358770  	88.555721 
2781.795648  	88.521231 
2783.232526  	88.485662 
2784.669403  	88.462676 
2786.106281  	88.423373 
2787.543159  	88.375969 
2788.980037  	88.330720 
2790.416915  	88.292364 
2791.853793  	88.272811 
2793.290671  	88.250121 
2794.727549  	88.203630 
2796.164427  	88.159091 
2797.601305  	88.134169 
2799.038183  	88.106458 
2800.475061  	88.056883 
2801.911938  	87.991250 
2803.348816  	87.918646 
2804.785694  	87.839676 
2806.222572  	87.768683 
2807.659450  	87.734547 
2809.096328  	87.713150 
2810.533206  	87.643221 
2811.970084  	87.541083 
2813.406962  	87.455661 
2814.843840  	87.388416 
2816.280718  	87.346464 
2817.717596  	87.321765 
2819.154474  	87.282590 
2820.591351  	87.227773 
2822.028229  	87.152861 
2823.465107  	87.069915 
2824.901985  	86.999516 
2826.338863  	86.912715 
2827.775741  	86.826514 
2829.212619  	86.765961 
2830.649497  	86.674304 
2832.086375  	86.563481 
2833.523253  	86.480564 
2834.960131  	86.378802 
2836.397009  	86.240201 
2837.833886  	86.101579 
2839.270764  	85.970805 
2840.707642  	85.834793 
2842.144520  	85.683053 
2843.581398  	85.537136 
2845.018276  	85.392283 
2846.455154  	85.193596 
2847.892032  	84.956195 
2849.328910  	84.724589 
2850.765788  	84.477392 
2852.202666  	84.219051 
2853.639544  	83.982782 
2855.076421  	83.724456 
2856.513299  	83.413738 
2857.950177  	83.135482 
2859.387055  	82.893021 
2860.823933  	82.588908 
2862.260811  	82.278582 
2863.697689  	82.024324 
2865.134567  	81.758305 
2866.571445  	81.482288 
2868.008323  	81.203198 
2869.445201  	80.899971 
2870.882079  	80.596772 
2872.318956  	80.264619 
2873.755834  	79.931625 
2875.192712  	79.656317 
2876.629590  	79.390088 
2878.066468  	79.149206 
2879.503346  	78.945385 
2880.940224  	78.775628 
2882.377102  	78.732839 
2883.813980  	78.763121 
2885.250858  	78.816415 
2886.687736  	78.976087 
2888.124614  	79.159244 
2889.561491  	79.320813 
2890.998369  	79.541993 
2892.435247  	79.753935 
2893.872125  	79.912638 
2895.309003  	80.082376 
2896.745881  	80.256982 
2898.182759  	80.405856 
2899.619637  	80.525033 
2901.056515  	80.616820 
2902.493393  	80.681202 
2903.930271  	80.724413 
2905.367149  	80.767730 
2906.804026  	80.783653 
2908.240904  	80.739789 
2909.677782  	80.667766 
2911.114660  	80.579223 
2912.551538  	80.453884 
2913.988416  	80.297846 
2915.425294  	80.146663 
2916.862172  	80.022435 
2918.299050  	79.918426 
2919.735928  	79.860169 
2921.172806  	79.816461 
2922.609684  	79.707701 
2924.046561  	79.581959 
2925.483439  	79.445572 
2926.920317  	79.248920 
2928.357195  	79.070027 
2929.794073  	78.930330 
2931.230951  	78.833915 
2932.667829  	78.846119 
2934.104707  	78.920572 
2935.541585  	79.053441 
2936.978463  	79.261837 
2938.415341  	79.495078 
2939.852219  	79.808313 
2941.289096  	80.181427 
2942.725974  	80.532553 
2944.162852  	80.895840 
2945.599730  	81.187401 
2947.036608  	81.280082 
2948.473486  	81.183924 
2949.910364  	80.898546 
2951.347242  	80.416492 
2952.784120  	79.715415 
2954.220998  	78.740912 
2955.657876  	77.509603 
2957.094754  	75.986311 
2958.531631  	74.118333 
2959.968509  	71.907990 
2961.405387  	69.290455 
2962.842265  	66.376966 
2964.279143  	63.359086 
2965.716021  	60.364246 
2967.152899  	57.810374 
2968.589777  	56.078742 
2970.026655  	55.508695 
2971.463533  	56.370868 
2972.900411  	58.283849 
2974.337289  	60.817256 
2975.774166  	63.731428 
2977.211044  	66.758301 
2978.647922  	69.802290 
2980.084800  	72.747179 
2981.521678  	75.473913 
2982.958556  	77.944048 
2984.395434  	80.076647 
2985.832312  	81.853483 
2987.269190  	83.311938 
2988.706068  	84.463588 
2990.142946  	85.368708 
2991.579824  	86.118305 
2993.016701  	86.720126 
2994.453579  	87.180885 
2995.890457  	87.575419 
2997.327335  	87.916993 
2998.764213  	88.194154 
3000.201091  	88.438668 
3001.637969  	88.639309 
3003.074847  	88.781872 
3004.511725  	88.881425 
3005.948603  	88.969568 
3007.385481  	89.097530 
3008.822359  	89.206701 
3010.259236  	89.224612 
3011.696114  	89.245813 
3013.132992  	89.315076 
3014.569870  	89.366627 
3016.006748  	89.416863 
3017.443626  	89.483627 
3018.880504  	89.520333 
3020.317382  	89.509314 
3021.754260  	89.487123 
3023.191138  	89.516530 
3024.628016  	89.585809 
3026.064894  	89.621572 
3027.501771  	89.629109 
3028.938649  	89.630832 
3030.375527  	89.604204 
3031.812405  	89.580049 
3033.249283  	89.593788 
3034.686161  	89.589199 
3036.123039  	89.533211 
3037.559917  	89.492366 
3038.996795  	89.491686 
3040.433673  	89.480231 
3041.870551  	89.467173 
3043.307429  	89.450905 
3044.744306  	89.368394 
3046.181184  	89.303278 
3047.618062  	89.354265 
3049.054940  	89.384198 
3050.491818  	89.321618 
3051.928696  	89.286741 
3053.365574  	89.271434 
3054.802452  	89.227365 
3056.239330  	89.225945 
3057.676208  	89.253916 
3059.113086  	89.231751 
3060.549964  	89.176650 
3061.986842  	89.138306 
3063.423719  	89.112813 
3064.860597  	89.042555 
3066.297475  	88.939953 
3067.734353  	88.909560 
3069.171231  	88.918842 
3070.608109  	88.864272 
3072.044987  	88.795675 
3073.481865  	88.770083 
3074.918743  	88.763773 
3076.355621  	88.750606 
3077.792499  	88.690483 
3079.229377  	88.629922 
3080.666254  	88.641630 
3082.103132  	88.612247 
3083.540010  	88.490746 
3084.976888  	88.436594 
3086.413766  	88.457056 
3087.850644  	88.421444 
3089.287522  	88.362810 
3090.724400  	88.335987 
3092.161278  	88.286832 
3093.598156  	88.217361 
3095.035034  	88.164910 
3096.471912  	88.100524 
3097.908789  	88.000630 
3099.345667  	87.892301 
3100.782545  	87.827125 
3102.219423  	87.819055 
3103.656301  	87.800092 
3105.093179  	87.737179 
3106.530057  	87.665878 
3107.966935  	87.593801 
3109.403813  	87.531004 
3110.840691  	87.487979 
3112.277569  	87.432052 
3113.714447  	87.377293 
3115.151324  	87.352618 
3116.588202  	87.290939 
3118.025080  	87.152973 
3119.461958  	87.033114 
3120.898836  	86.991192 
3122.335714  	86.952752 
3123.772592  	86.866033 
3125.209470  	86.777914 
3126.646348  	86.717814 
3128.083226  	86.665167 
3129.520104  	86.588544 
3130.956982  	86.491497 
3132.393859  	86.420622 
3133.830737  	86.366051 
3135.267615  	86.300579 
3136.704493  	86.245319 
3138.141371  	86.156607 
3139.578249  	86.026652 
3141.015127  	85.945464 
3142.452005  	85.868752 
3143.888883  	85.730078 
3145.325761  	85.619638 
3146.762639  	85.552850 
3148.199517  	85.451007 
3149.636394  	85.327248 
3151.073272  	85.217109 
3152.510150  	85.124089 
3153.947028  	85.053756 
3155.383906  	84.959893 
3156.820784  	84.820552 
3158.257662  	84.723066 
3159.694540  	84.655472 
3161.131418  	84.513407 
3162.568296  	84.353153 
3164.005174  	84.228935 
3165.442052  	84.112917 
3166.878929  	84.046096 
3168.315807  	83.953133 
3169.752685  	83.778344 
3171.189563  	83.657860 
3172.626441  	83.521585 
3174.063319  	83.288107 
3175.500197  	83.144230 
3176.937075  	83.087595 
3178.373953  	82.995190 
3179.810831  	82.873765 
3181.247709  	82.689059 
3182.684587  	82.476800 
3184.121464  	82.320682 
3185.558342  	82.185099 
3186.995220  	82.041654 
3188.432098  	81.893047 
3189.868976  	81.752347 
3191.305854  	81.608700 
3192.742732  	81.436415 
3194.179610  	81.283924 
3195.616488  	81.126732 
3197.053366  	80.957511 
3198.490244  	80.856062 
3199.927122  	80.733676 
3201.363999  	80.584947 
3202.800877  	80.484852 
3204.237755  	80.294425 
3205.674633  	80.043000 
3207.111511  	79.870964 
3208.548389  	79.727244 
3209.985267  	79.585066 
3211.422145  	79.398982 
3212.859023  	79.193592 
3214.295901  	79.055272 
3215.732779  	78.882623 
3217.169657  	78.720417 
3218.606534  	78.628160 
3220.043412  	78.467781 
3221.480290  	78.334790 
3222.917168  	78.233398 
3224.354046  	77.997779 
3225.790924  	77.772218 
3227.227802  	77.628678 
3228.664680  	77.467711 
3230.101558  	77.282175 
3231.538436  	77.072830 
3232.975314  	76.919258 
3234.412192  	76.819448 
3235.849069  	76.707581 
3237.285947  	76.620749 
3238.722825  	76.450253 
3240.159703  	76.207133 
3241.596581  	76.043308 
3243.033459  	75.850931 
3244.470337  	75.627841 
3245.907215  	75.480705 
3247.344093  	75.349194 
3248.780971  	75.214823 
3250.217849  	75.045429 
3251.654727  	74.891180 
3253.091604  	74.842615 
3254.528482  	74.741208 
3255.965360  	74.535822 
3257.402238  	74.357076 
3258.839116  	74.251356 
3260.275994  	74.185323 
3261.712872  	74.023150 
3263.149750  	73.843257 
3264.586628  	73.815071 
3266.023506  	73.758025 
3267.460384  	73.570741 
3268.897262  	73.379008 
3270.334139  	73.261693 
3271.771017  	73.227746 
3273.207895  	73.134228 
3274.644773  	72.965048 
3276.081651  	72.850893 
3277.518529  	72.750447 
3278.955407  	72.640066 
3280.392285  	72.530475 
3281.829163  	72.448072 
3283.266041  	72.388731 
3284.702919  	72.213955 
3286.139797  	72.103927 
3287.576674  	72.162279 
3289.013552  	72.061342 
3290.450430  	71.904755 
3291.887308  	71.870639 
3293.324186  	71.787077 
3294.761064  	71.718226 
3296.197942  	71.638660 
3297.634820  	71.489362 
3299.071698  	71.418196 
3300.508576  	71.349977 
3301.945454  	71.309559 
3303.382332  	71.324075 
3304.819210  	71.240966 
3306.256087  	71.202182 
3307.692965  	71.190021 
3309.129843  	71.105003 
3310.566721  	71.133007 
3312.003599  	71.136313 
3313.440477  	71.033036 
3314.877355  	70.988009 
3316.314233  	70.919853 
3317.751111  	70.893254 
3319.187989  	70.942758 
3320.624867  	70.920599 
3322.061745  	70.905138 
3323.498622  	70.885415 
3324.935500  	70.864080 
3326.372378  	70.895246 
3327.809256  	70.827506 
3329.246134  	70.789590 
3330.683012  	70.867756 
3332.119890  	70.858639 
3333.556768  	70.864109 
3334.993646  	70.900396 
3336.430524  	70.845654 
3337.867402  	70.862851 
3339.304280  	70.968557 
3340.741157  	71.039548 
3342.178035  	71.059406 
3343.614913  	71.038033 
3345.051791  	71.023793 
3346.488669  	71.035218 
3347.925547  	71.144242 
3349.362425  	71.325179 
3350.799303  	71.418883 
3352.236181  	71.528189 
3353.673059  	71.646583 
3355.109937  	71.640548 
3356.546815  	71.706248 
3357.983692  	71.857072 
3359.420570  	71.946545 
3360.857448  	72.058261 
3362.294326  	72.191670 
3363.731204  	72.313262 
3365.168082  	72.409692 
3366.604960  	72.491742 
3368.041838  	72.655454 
3369.478716  	72.803905 
3370.915594  	72.943117 
3372.352472  	73.178105 
3373.789350  	73.328930 
3375.226227  	73.412344 
3376.663105  	73.544752 
3378.099983  	73.661869 
3379.536861  	73.871807 
3380.973739  	74.124961 
3382.410617  	74.265239 
3383.847495  	74.401245 
3385.284373  	74.546691 
3386.721251  	74.709671 
3388.158129  	74.923827 
3389.595007  	75.077369 
3391.031885  	75.227144 
3392.468762  	75.451113 
3393.905640  	75.673482 
3395.342518  	75.793215 
3396.779396  	75.792486 
3398.216274  	75.940935 
3399.653152  	76.288185 
3401.090030  	76.500072 
3402.526908  	76.632946 
3403.963786  	76.855200 
3405.400664  	77.075989 
3406.837542  	77.264337 
3408.274420  	77.395227 
3409.711297  	77.525726 
3411.148175  	77.725735 
3412.585053  	77.890752 
3414.021931  	78.020029 
3415.458809  	78.151495 
3416.895687  	78.329205 
3418.332565  	78.608682 
3419.769443  	78.820924 
3421.206321  	78.959607 
3422.643199  	79.140176 
3424.080077  	79.267596 
3425.516955  	79.458758 
3426.953832  	79.746898 
3428.390710  	79.900650 
3429.827588  	80.024903 
3431.264466  	80.208210 
3432.701344  	80.342086 
3434.138222  	80.521657 
3435.575100  	80.735537 
3437.011978  	80.882497 
3438.448856  	81.010909 
3439.885734  	81.114555 
3441.322612  	81.235748 
3442.759490  	81.457318 
3444.196367  	81.692135 
3445.633245  	81.858728 
3447.070123  	81.991495 
3448.507001  	82.151233 
3449.943879  	82.369477 
3451.380757  	82.576142 
3452.817635  	82.682535 
3454.254513  	82.749643 
3455.691391  	82.894339 
3457.128269  	83.082861 
3458.565147  	83.236680 
3460.002025  	83.352187 
3461.438902  	83.457843 
3462.875780  	83.638631 
3464.312658  	83.871958 
3465.749536  	84.039852 
3467.186414  	84.203018 
3468.623292  	84.357837 
3470.060170  	84.429390 
3471.497048  	84.570801 
3472.933926  	84.807887 
3474.370804  	84.985620 
3475.807682  	85.113049 
3477.244560  	85.205990 
3478.681437  	85.301325 
3480.118315  	85.510692 
3481.555193  	85.744882 
3482.992071  	85.855394 
3484.428949  	85.921971 
3485.865827  	86.061438 
3487.302705  	86.227818 
3488.739583  	86.333367 
3490.176461  	86.384161 
3491.613339  	86.460267 
3493.050217  	86.643617 
3494.487095  	86.845018 
3495.923972  	86.910885 
3497.360850  	86.966288 
3498.797728  	87.098724 
3500.234606  	87.183587 
3501.671484  	87.287327 
3503.108362  	87.465507 
3504.545240  	87.624133 
3505.982118  	87.770851 
3507.418996  	87.839059 
3508.855874  	87.829299 
3510.292752  	87.948666 
3511.729630  	88.192542 
3513.166507  	88.370666 
3514.603385  	88.404877 
3516.040263  	88.386256 
3517.477141  	88.464408 
3518.914019  	88.555522 
3520.350897  	88.570552 
3521.787775  	88.626526 
3523.224653  	88.765067 
3524.661531  	88.932830 
3526.098409  	89.003584 
3527.535287  	88.980687 
3528.972165  	89.076502 
3530.409043  	89.202671 
3531.845920  	89.243123 
3533.282798  	89.382978 
3534.719676  	89.536522 
3536.156554  	89.595659 
3537.593432  	89.660415 
3539.030310  	89.665605 
3540.467188  	89.685749 
3541.904066  	89.815791 
3543.340944  	89.858766 
3544.777822  	89.864955 
3546.214700  	90.014046 
3547.651578  	90.187444 
3549.088455  	90.306964 
3550.525333  	90.375037 
3551.962211  	90.367896 
3553.399089  	90.326704 
3554.835967  	90.313080 
3556.272845  	90.369682 
3557.709723  	90.467381 
3559.146601  	90.534511 
3560.583479  	90.621694 
3562.020357  	90.754642 
3563.457235  	90.842110 
3564.894113  	90.802845 
3566.330990  	90.655012 
3567.767868  	90.625860 
3569.204746  	90.806988 
3570.641624  	90.905197 
3572.078502  	90.935467 
3573.515380  	90.996504 
3574.952258  	91.008560 
3576.389136  	91.002191 
3577.826014  	91.048230 
3579.262892  	91.092521 
3580.699770  	91.110177 
3582.136648  	91.146695 
3583.573525  	91.175788 
3585.010403  	91.166141 
3586.447281  	91.174399 
3587.884159  	91.237489 
3589.321037  	91.296550 
3590.757915  	91.344821 
3592.194793  	91.400537 
3593.631671  	91.430810 
3595.068549  	91.433424 
3596.505427  	91.442895 
3597.942305  	91.443697 
3599.379183  	91.462465 
3600.816060  	91.537158 
3602.252938  	91.587948 
3603.689816  	91.558979 
3605.126694  	91.492583 
3606.563572  	91.458688 
3608.000450  	91.545375 
3609.437328  	91.619936 
3610.874206  	91.530864 
3612.311084  	91.477994 
3613.747962  	91.512060 
3615.184840  	91.546503 
3616.621718  	91.580845 
3618.058595  	91.603618 
3619.495473  	91.659974 
3620.932351  	91.799126 
3622.369229  	91.811742 
3623.806107  	91.737569 
3625.242985  	91.734855 
3626.679863  	91.739546 
3628.116741  	91.714684 
3629.553619  	91.722971 
3630.990497  	91.729242 
3632.427375  	91.731688 
3633.864253  	91.739597 
3635.301130  	91.727493 
3636.738008  	91.748534 
3638.174886  	91.780771 
3639.611764  	91.755673 
3641.048642  	91.744753 
3642.485520  	91.782595 
3643.922398  	91.779667 
3645.359276  	91.752571 
3646.796154  	91.761078 
3648.233032  	91.772266 
3649.669910  	91.797613 
3651.106788  	91.931308 
3652.543665  	91.993155 
3653.980543  	91.899135 
3655.417421  	91.826104 
3656.854299  	91.867471 
3658.291177  	91.941146 
3659.728055  	91.956093 
3661.164933  	91.940693 
3662.601811  	91.964813 
3664.038689  	92.026835 
3665.475567  	92.001484 
3666.912445  	91.905066 
3668.349323  	91.882712 
3669.786200  	91.951285 
3671.223078  	92.008037 
3672.659956  	92.003536 
3674.096834  	92.014037 
3675.533712  	92.031783 
3676.970590  	91.946751 
3678.407468  	91.897883 
3679.844346  	91.949949 
3681.281224  	92.013434 
3682.718102  	92.002045 
3684.154980  	91.982723 
3685.591858  	91.978257 
3687.028735  	91.960520 
3688.465613  	91.934883 
3689.902491  	91.898729 
3691.339369  	91.854458 
3692.776247  	91.922957 
3694.213125  	92.063441 
3695.650003  	92.090817 
3697.086881  	92.045342 
3698.523759  	92.000998 
3699.960637  	91.945778 
3701.397515  	91.949013 
3702.834393  	92.011057 
3704.271270  	92.013764 
3705.708148  	92.028440 
3707.145026  	92.062043 
3708.581904  	92.038170 
3710.018782  	92.010054 
3711.455660  	92.008730 
3712.892538  	92.011835 
3714.329416  	92.016780 
3715.766294  	92.006803 
3717.203172  	92.012038 
3718.640050  	92.036133 
3720.076928  	92.043193 
3721.513805  	92.055859 
3722.950683  	92.053236 
3724.387561  	92.005362 
3725.824439  	91.970883 
3727.261317  	92.006518 
3728.698195  	92.017109 
3730.135073  	91.964296 
3731.571951  	91.953290 
3733.008829  	92.000314 
3734.445707  	91.973173 
3735.882585  	91.931429 
3737.319463  	91.978543 
3738.756340  	91.978619 
3740.193218  	91.934086 
3741.630096  	91.901644 
3743.066974  	91.895331 
3744.503852  	91.977123 
3745.940730  	92.001346 
3747.377608  	91.907598 
3748.814486  	91.887620 
3750.251364  	91.894845 
3751.688242  	91.883225 
3753.125120  	91.924713 
3754.561998  	91.929591 
3755.998875  	91.908180 
3757.435753  	91.927483 
3758.872631  	91.923013 
3760.309509  	91.893204 
3761.746387  	91.911295 
3763.183265  	91.926901 
3764.620143  	91.919093 
3766.057021  	91.931105 
3767.493899  	91.902784 
3768.930777  	91.845836 
3770.367655  	91.848969 
3771.804533  	91.888756 
3773.241411  	91.881813 
3774.678288  	91.886568 
3776.115166  	91.898088 
3777.552044  	91.902154 
3778.988922  	91.954963 
3780.425800  	91.968252 
3781.862678  	91.875328 
3783.299556  	91.857747 
3784.736434  	91.906159 
3786.173312  	91.886473 
3787.610190  	91.832887 
3789.047068  	91.829952 
3790.483946  	91.849331 
3791.920823  	91.819226 
3793.357701  	91.787085 
3794.794579  	91.835283 
3796.231457  	91.853983 
3797.668335  	91.775286 
3799.105213  	91.758968 
3800.542091  	91.798127 
3801.978969  	91.829415 
3803.415847  	91.857032 
3804.852725  	91.886169 
3806.289603  	91.961921 
3807.726481  	91.986611 
3809.163358  	91.862741 
3810.600236  	91.831479 
3812.037114  	91.857713 
3813.473992  	91.805666 
3814.910870  	91.791937 
3816.347748  	91.873537 
3817.784626  	91.833611 
3819.221504  	91.755520 
3820.658382  	91.804369 
3822.095260  	91.916447 
3823.532138  	91.917716 
3824.969016  	91.913539 
3826.405893  	91.908153 
3827.842771  	91.827518 
3829.279649  	91.762014 
3830.716527  	91.755887 
3832.153405  	91.755462 
3833.590283  	91.747498 
3835.027161  	91.755220 
3836.464039  	91.795195 
3837.900917  	91.839125 
3839.337795  	91.835601 
3840.774673  	91.831595 
3842.211551  	91.825889 
3843.648428  	91.786784 
3845.085306  	91.799308 
3846.522184  	91.864103 
3847.959062  	91.862519 
3849.395940  	91.773986 
3850.832818  	91.671630 
3852.269696  	91.655031 
3853.706574  	91.798923 
3855.143452  	91.917218 
3856.580330  	91.848774 
3858.017208  	91.781499 
3859.454086  	91.777557 
3860.890963  	91.846244 
3862.327841  	91.884250 
3863.764719  	91.799891 
3865.201597  	91.746635 
3866.638475  	91.784193 
3868.075353  	91.736607 
3869.512231  	91.629438 
3870.949109  	91.638327 
3872.385987  	91.742045 
3873.822865  	91.826436 
3875.259743  	91.884187 
3876.696621  	91.825307 
3878.133498  	91.779270 
3879.570376  	91.809677 
3881.007254  	91.805422 
3882.444132  	91.752953 
3883.881010  	91.724770 
3885.317888  	91.704947 
3886.754766  	91.749740 
3888.191644  	91.804263 
3889.628522  	91.787641 
3891.065400  	91.736504 
3892.502278  	91.668744 
3893.939156  	91.685961 
3895.376033  	91.778873 
3896.812911  	91.781257 
3898.249789  	91.708516 
3899.686667  	91.685159 
3901.123545  	91.658421 
3902.560423  	91.646859 
3903.997301  	91.711032 
3905.434179  	91.731890 
3906.871057  	91.723114 
3908.307935  	91.760993 
3909.744813  	91.784094 
3911.181691  	91.776280 
3912.618568  	91.790453 
3914.055446  	91.814050 
3915.492324  	91.816113 
3916.929202  	91.764650 
3918.366080  	91.708237 
3919.802958  	91.709612 
3921.239836  	91.734261 
3922.676714  	91.725740 
3924.113592  	91.702717 
3925.550470  	91.724797 
3926.987348  	91.766921 
3928.424226  	91.762666 
3929.861103  	91.733054 
3931.297981  	91.699139 
3932.734859  	91.657603 
3934.171737  	91.664999 
3935.608615  	91.711482 
3937.045493  	91.748179 
3938.482371  	91.754295 
3939.919249  	91.803512 
3941.356127  	91.742912 
3942.793005  	91.685223 
3944.229883  	91.719457 
3945.666761  	91.771639 
3947.103638  	91.739900 
3948.540516  	91.689353 
3949.977394  	91.699806 
3951.414272  	91.742495 
3952.851150  	91.757461 
3954.288028  	91.765451 
3955.724906  	91.799760 
3957.161784  	91.743395 
3958.598662  	91.697082 
3960.035540  	91.715705 
3961.472418  	91.747658 
3962.909296  	91.695292 
3964.346173  	91.694221 
3965.783051  	91.731870 
3967.219929  	91.707001 
3968.656807  	91.701074 
3970.093685  	91.721155 
3971.530563  	91.721492 
3972.967441  	91.746895 
3974.404319  	91.746779 
3975.841197  	91.697817 
3977.278075  	91.687714 
3978.714953  	91.699125 
3980.151831  	91.692661 
3981.588708  	91.701846 
3983.025586  	91.727659 
3984.462464  	91.742248 
3985.899342  	91.726172 
3987.336220  	91.682867 
3988.773098  	91.643568 
3990.209976  	91.635915 
3991.646854  	91.664523 
3993.083732  	91.693572 
3994.520610  	91.697913 
3995.957488  	91.699874 
3997.394366  	91.724949 
3998.831244  	91.774119 
4000.268121  	91.776678 