##TITLE=No Description
##DATA TYPE=INFRARED SPECTRUM
##XUNITS=1/CM
##YUNITS=%T
399.452061  	71.114605 
400.888939  	72.072983 
402.325817  	71.968278 
403.762695  	71.902284 
405.199573  	73.041492 
406.636451  	72.463120 
408.073328  	71.721718 
409.510206  	71.055998 
410.947084  	68.513787 
412.383962  	66.948857 
413.820840  	66.151526 
415.257718  	65.050259 
416.694596  	64.600519 
418.131474  	64.546389 
419.568352  	64.947673 
421.005230  	64.437690 
422.442108  	63.292205 
423.878986  	63.455116 
425.315863  	63.799734 
426.752741  	63.962412 
428.189619  	65.079174 
429.626497  	65.852291 
431.063375  	66.390529 
432.500253  	67.392791 
433.937131  	68.205872 
435.374009  	69.059356 
436.810887  	69.288566 
438.247765  	69.178081 
439.684643  	69.823359 
441.121521  	70.294967 
442.558398  	70.782713 
443.995276  	70.948259 
445.432154  	70.210307 
446.869032  	70.225339 
448.305910  	70.549296 
449.742788  	70.582138 
451.179666  	71.082691 
452.616544  	70.962535 
454.053422  	70.662397 
455.490300  	71.201919 
456.927178  	71.403203 
458.364056  	71.191667 
459.800933  	70.926418 
461.237811  	70.757282 
462.674689  	71.000286 
464.111567  	70.700728 
465.548445  	70.055332 
466.985323  	69.087028 
468.422201  	67.817344 
469.859079  	68.566228 
471.295957  	70.491296 
472.732835  	70.633253 
474.169713  	70.043128 
475.606591  	69.682848 
477.043469  	69.173847 
478.480346  	68.887877 
479.917224  	67.865034 
481.354102  	66.253667 
482.790980  	65.306059 
484.227858  	64.394270 
485.664736  	63.591284 
487.101614  	63.787096 
488.538492  	64.522669 
489.975370  	65.511128 
491.412248  	66.418820 
492.849126  	67.125191 
494.286004  	68.004767 
495.722881  	68.784898 
497.159759  	69.388837 
498.596637  	70.031095 
500.033515  	70.539254 
501.470393  	70.743421 
502.907271  	70.732014 
504.344149  	70.874221 
505.781027  	71.165754 
507.217905  	71.356499 
508.654783  	71.530767 
510.091661  	71.590541 
511.528539  	71.476850 
512.965416  	71.557308 
514.402294  	71.797465 
515.839172  	71.873743 
517.276050  	71.783938 
518.712928  	71.659887 
520.149806  	71.600574 
521.586684  	71.635301 
523.023562  	71.724905 
524.460440  	71.751096 
525.897318  	71.672366 
527.334196  	71.625317 
528.771074  	71.629366 
530.207951  	71.628211 
531.644829  	71.589105 
533.081707  	71.529245 
534.518585  	71.599484 
535.955463  	71.753734 
537.392341  	71.795377 
538.829219  	71.725232 
540.266097  	71.607884 
541.702975  	71.595682 
543.139853  	71.650898 
544.576731  	71.548313 
546.013609  	71.431461 
547.450486  	71.353851 
548.887364  	71.276115 
550.324242  	71.328447 
551.761120  	71.237053 
553.197998  	71.041236 
554.634876  	71.088075 
556.071754  	70.949667 
557.508632  	70.535727 
558.945510  	70.360943 
560.382388  	70.344080 
561.819266  	70.273828 
563.256144  	70.151303 
564.693021  	69.987720 
566.129899  	69.871959 
567.566777  	69.725958 
569.003655  	69.594276 
570.440533  	69.584064 
571.877411  	69.470828 
573.314289  	69.255715 
574.751167  	69.112662 
576.188045  	69.025010 
577.624923  	68.961459 
579.061801  	68.830080 
580.498679  	68.681689 
581.935556  	68.659978 
583.372434  	68.650828 
584.809312  	68.567385 
586.246190  	68.448285 
587.683068  	68.410067 
589.119946  	68.465573 
590.556824  	68.358443 
591.993702  	68.172778 
593.430580  	68.134412 
594.867458  	68.105684 
596.304336  	68.163452 
597.741214  	68.242145 
599.178091  	68.087209 
600.614969  	67.978915 
602.051847  	67.986697 
603.488725  	67.949710 
604.925603  	67.986385 
606.362481  	67.981901 
607.799359  	67.810482 
609.236237  	67.807091 
610.673115  	67.845209 
612.109993  	67.842148 
613.546871  	67.855098 
614.983749  	67.811015 
616.420626  	67.798744 
617.857504  	67.838973 
619.294382  	67.824903 
620.731260  	67.826901 
622.168138  	67.832850 
623.605016  	67.806517 
625.041894  	67.835020 
626.478772  	67.766685 
627.915650  	67.645138 
629.352528  	67.711117 
630.789406  	67.824191 
632.226284  	67.842885 
633.663161  	67.827949 
635.100039  	67.851142 
636.536917  	67.994174 
637.973795  	68.133538 
639.410673  	68.188065 
640.847551  	68.273421 
642.284429  	68.382836 
643.721307  	68.430125 
645.158185  	68.467893 
646.595063  	68.517967 
648.031941  	68.590749 
649.468819  	68.727841 
650.905696  	68.852594 
652.342574  	68.991865 
653.779452  	69.166694 
655.216330  	69.279753 
656.653208  	69.381487 
658.090086  	69.506656 
659.526964  	69.623574 
660.963842  	69.768913 
662.400720  	69.954187 
663.837598  	70.102296 
665.274476  	70.168813 
666.711354  	70.272893 
668.148231  	70.497756 
669.585109  	70.746599 
671.021987  	70.846739 
672.458865  	70.963048 
673.895743  	71.143097 
675.332621  	71.316305 
676.769499  	71.523066 
678.206377  	71.725512 
679.643255  	71.864412 
681.080133  	72.053016 
682.517011  	72.308409 
683.953889  	72.523877 
685.390766  	72.701059 
686.827644  	72.872757 
688.264522  	73.059295 
689.701400  	73.262364 
691.138278  	73.446705 
692.575156  	73.628728 
694.012034  	73.821036 
695.448912  	73.985811 
696.885790  	74.132247 
698.322668  	74.264797 
699.759546  	74.457679 
701.196424  	74.688405 
702.633301  	74.908008 
704.070179  	75.081603 
705.507057  	75.246315 
706.943935  	75.453057 
708.380813  	75.657566 
709.817691  	75.814417 
711.254569  	75.999141 
712.691447  	76.188164 
714.128325  	76.345176 
715.565203  	76.590633 
717.002081  	76.866271 
718.438959  	76.989018 
719.875837  	77.072831 
721.312714  	77.258679 
722.749592  	77.478654 
724.186470  	77.674691 
725.623348  	77.877337 
727.060226  	78.103390 
728.497104  	78.299917 
729.933982  	78.474794 
731.370860  	78.648272 
732.807738  	78.801727 
734.244616  	79.002323 
735.681494  	79.217092 
737.118372  	79.418833 
738.555249  	79.670800 
739.992127  	79.855674 
741.429005  	79.905189 
742.865883  	80.061259 
744.302761  	80.309837 
745.739639  	80.515187 
747.176517  	80.727007 
748.613395  	80.888081 
750.050273  	80.986885 
751.487151  	81.125334 
752.924029  	81.304259 
754.360907  	81.535566 
755.797784  	81.762522 
757.234662  	81.902706 
758.671540  	82.056897 
760.108418  	82.241152 
761.545296  	82.381700 
762.982174  	82.559756 
764.419052  	82.777283 
765.855930  	82.907426 
767.292808  	82.985548 
768.729686  	83.143121 
770.166564  	83.370531 
771.603442  	83.574770 
773.040319  	83.733088 
774.477197  	83.858926 
775.914075  	83.961901 
777.350953  	84.057395 
778.787831  	84.154667 
780.224709  	84.302321 
781.661587  	84.509144 
783.098465  	84.662081 
784.535343  	84.752588 
785.972221  	84.877884 
787.409099  	84.964592 
788.845977  	84.939960 
790.282854  	84.937809 
791.719732  	85.004737 
793.156610  	85.035125 
794.593488  	85.013822 
796.030366  	84.954742 
797.467244  	84.849789 
798.904122  	84.714467 
800.341000  	84.484906 
801.777878  	84.100363 
803.214756  	83.533738 
804.651634  	82.676649 
806.088512  	81.447268 
807.525389  	79.682937 
808.962267  	76.996196 
810.399145  	72.928347 
811.836023  	67.267814 
813.272901  	60.748848 
814.709779  	55.082677 
816.146657  	52.438256 
817.583535  	54.413588 
819.020413  	60.691533 
820.457291  	68.901993 
821.894169  	76.010783 
823.331047  	80.794139 
824.767924  	83.624197 
826.204802  	85.263281 
827.641680  	86.320868 
829.078558  	87.021630 
830.515436  	87.523053 
831.952314  	87.918967 
833.389192  	88.211470 
834.826070  	88.453835 
836.262948  	88.606143 
837.699826  	88.713726 
839.136704  	88.878870 
840.573582  	88.998059 
842.010459  	89.068677 
843.447337  	89.160659 
844.884215  	89.242067 
846.321093  	89.352643 
847.757971  	89.439887 
849.194849  	89.444671 
850.631727  	89.474430 
852.068605  	89.520992 
853.505483  	89.566749 
854.942361  	89.651393 
856.379239  	89.692862 
857.816117  	89.695747 
859.252994  	89.725694 
860.689872  	89.745712 
862.126750  	89.735815 
863.563628  	89.699930 
865.000506  	89.665667 
866.437384  	89.653057 
867.874262  	89.643702 
869.311140  	89.656381 
870.748018  	89.634973 
872.184896  	89.532315 
873.621774  	89.462716 
875.058652  	89.455994 
876.495529  	89.453471 
877.932407  	89.452280 
879.369285  	89.432897 
880.806163  	89.382747 
882.243041  	89.280116 
883.679919  	89.147458 
885.116797  	89.063337 
886.553675  	88.972827 
887.990553  	88.851929 
889.427431  	88.760845 
890.864309  	88.627156 
892.301187  	88.454737 
893.738064  	88.309227 
895.174942  	88.140228 
896.611820  	87.978978 
898.048698  	87.826912 
899.485576  	87.610632 
900.922454  	87.392558 
902.359332  	87.170162 
903.796210  	86.898936 
905.233088  	86.637306 
906.669966  	86.338304 
908.106844  	85.969249 
909.543722  	85.598092 
910.980599  	85.201151 
912.417477  	84.735985 
913.854355  	84.176087 
915.291233  	83.541375 
916.728111  	82.894852 
918.164989  	82.180179 
919.601867  	81.445118 
921.038745  	80.814332 
922.475623  	80.166155 
923.912501  	79.428392 
925.349379  	78.580066 
926.786257  	77.504537 
928.223134  	76.228402 
929.660012  	74.702107 
931.096890  	72.884350 
932.533768  	70.925482 
933.970646  	68.775715 
935.407524  	66.496636 
936.844402  	64.143802 
938.281280  	61.288769 
939.718158  	57.751332 
941.155036  	53.458060 
942.591914  	48.352422 
944.028792  	43.018210 
945.465670  	37.756935 
946.902547  	32.932943 
948.339425  	29.469608 
949.776303  	27.711158 
951.213181  	28.366885 
952.650059  	32.003016 
954.086937  	37.923943 
955.523815  	45.452210 
956.960693  	53.857014 
958.397571  	62.229229 
959.834449  	69.740855 
961.271327  	75.703541 
962.708205  	79.938089 
964.145082  	82.821182 
965.581960  	84.819659 
967.018838  	86.167065 
968.455716  	87.123773 
969.892594  	87.841861 
971.329472  	88.338584 
972.766350  	88.781687 
974.203228  	89.174667 
975.640106  	89.413600 
977.076984  	89.596300 
978.513862  	89.755467 
979.950740  	89.901318 
981.387617  	90.071675 
982.824495  	90.203252 
984.261373  	90.355915 
985.698251  	90.563883 
987.135129  	90.711584 
988.572007  	90.827931 
990.008885  	90.941942 
991.445763  	91.014673 
992.882641  	91.075834 
994.319519  	91.093087 
995.756397  	91.071238 
997.193275  	91.073926 
998.630152  	91.067037 
1000.067030  	91.036910 
1001.503908  	90.993839 
1002.940786  	90.943145 
1004.377664  	90.918321 
1005.814542  	90.868345 
1007.251420  	90.770817 
1008.688298  	90.697180 
1010.125176  	90.629185 
1011.562054  	90.541630 
1012.998932  	90.477021 
1014.435810  	90.416728 
1015.872687  	90.327892 
1017.309565  	90.240926 
1018.746443  	90.159371 
1020.183321  	90.040695 
1021.620199  	89.915083 
1023.057077  	89.828995 
1024.493955  	89.731882 
1025.930833  	89.620926 
1027.367711  	89.535162 
1028.804589  	89.424091 
1030.241467  	89.289412 
1031.678345  	89.182394 
1033.115222  	89.084118 
1034.552100  	88.982679 
1035.988978  	88.858182 
1037.425856  	88.687508 
1038.862734  	88.503595 
1040.299612  	88.321626 
1041.736490  	88.153302 
1043.173368  	87.993236 
1044.610246  	87.788045 
1046.047124  	87.564891 
1047.484002  	87.383558 
1048.920880  	87.221153 
1050.357757  	87.034044 
1051.794635  	86.799856 
1053.231513  	86.555463 
1054.668391  	86.332628 
1056.105269  	86.074762 
1057.542147  	85.779802 
1058.979025  	85.476230 
1060.415903  	85.118848 
1061.852781  	84.730311 
1063.289659  	84.349126 
1064.726537  	83.936055 
1066.163415  	83.511776 
1067.600292  	83.083278 
1069.037170  	82.590903 
1070.474048  	82.058524 
1071.910926  	81.503064 
1073.347804  	80.895051 
1074.784682  	80.234426 
1076.221560  	79.495607 
1077.658438  	78.718497 
1079.095316  	77.915172 
1080.532194  	76.962811 
1081.969072  	75.909448 
1083.405950  	74.811241 
1084.842827  	73.566424 
1086.279705  	72.222903 
1087.716583  	70.760281 
1089.153461  	69.143280 
1090.590339  	67.495126 
1092.027217  	65.726989 
1093.464095  	63.923553 
1094.900973  	62.223216 
1096.337851  	60.404337 
1097.774729  	58.652329 
1099.211607  	57.105805 
1100.648485  	55.617532 
1102.085362  	54.481421 
1103.522240  	53.676150 
1104.959118  	53.134068 
1106.395996  	53.041815 
1107.832874  	53.131408 
1109.269752  	53.438370 
1110.706630  	53.994017 
1112.143508  	54.529332 
1113.580386  	55.212588 
1115.017264  	55.882576 
1116.454142  	56.289741 
1117.891020  	56.458079 
1119.327897  	55.974056 
1120.764775  	54.736138 
1122.201653  	52.962037 
1123.638531  	50.772640 
1125.075409  	48.848567 
1126.512287  	47.652541 
1127.949165  	47.386619 
1129.386043  	48.429511 
1130.822921  	50.413507 
1132.259799  	53.099672 
1133.696677  	56.402174 
1135.133555  	59.714559 
1136.570432  	62.718593 
1138.007310  	65.176908 
1139.444188  	66.927328 
1140.881066  	68.100514 
1142.317944  	68.686936 
1143.754822  	68.793065 
1145.191700  	68.557177 
1146.628578  	67.900764 
1148.065456  	66.978910 
1149.502334  	65.822173 
1150.939212  	64.311257 
1152.376090  	62.672954 
1153.812967  	60.919951 
1155.249845  	59.110150 
1156.686723  	57.597689 
1158.123601  	56.447431 
1159.560479  	55.963494 
1160.997357  	56.419340 
1162.434235  	57.768990 
1163.871113  	60.218611 
1165.307991  	63.615376 
1166.744869  	67.584793 
1168.181747  	71.810666 
1169.618625  	75.770884 
1171.055502  	79.145272 
1172.492380  	81.846471 
1173.929258  	83.876283 
1175.366136  	85.372028 
1176.803014  	86.476669 
1178.239892  	87.224408 
1179.676770  	87.704135 
1181.113648  	88.049071 
1182.550526  	88.258270 
1183.987404  	88.352173 
1185.424282  	88.400808 
1186.861160  	88.421831 
1188.298038  	88.469706 
1189.734915  	88.574661 
1191.171793  	88.711386 
1192.608671  	88.866379 
1194.045549  	89.009760 
1195.482427  	89.131292 
1196.919305  	89.218315 
1198.356183  	89.248322 
1199.793061  	89.270952 
1201.229939  	89.292064 
1202.666817  	89.278367 
1204.103695  	89.254596 
1205.540573  	89.214258 
1206.977450  	89.158547 
1208.414328  	89.102219 
1209.851206  	89.034850 
1211.288084  	88.979328 
1212.724962  	88.906178 
1214.161840  	88.808167 
1215.598718  	88.750069 
1217.035596  	88.676382 
1218.472474  	88.563070 
1219.909352  	88.483697 
1221.346230  	88.410089 
1222.783108  	88.323998 
1224.219985  	88.243473 
1225.656863  	88.151249 
1227.093741  	88.067132 
1228.530619  	87.992992 
1229.967497  	87.922012 
1231.404375  	87.853906 
1232.841253  	87.770673 
1234.278131  	87.713354 
1235.715009  	87.662449 
1237.151887  	87.551116 
1238.588765  	87.431427 
1240.025643  	87.315273 
1241.462520  	87.174296 
1242.899398  	87.028213 
1244.336276  	86.856246 
1245.773154  	86.686538 
1247.210032  	86.535672 
1248.646910  	86.346991 
1250.083788  	86.157190 
1251.520666  	85.988318 
1252.957544  	85.811814 
1254.394422  	85.649300 
1255.831300  	85.470517 
1257.268178  	85.267097 
1258.705055  	85.079393 
1260.141933  	84.870059 
1261.578811  	84.634396 
1263.015689  	84.393913 
1264.452567  	84.110654 
1265.889445  	83.796482 
1267.326323  	83.479700 
1268.763201  	83.122143 
1270.200079  	82.700981 
1271.636957  	82.255247 
1273.073835  	81.807874 
1274.510713  	81.321379 
1275.947590  	80.775707 
1277.384468  	80.191809 
1278.821346  	79.574499 
1280.258224  	78.896177 
1281.695102  	78.169470 
1283.131980  	77.452828 
1284.568858  	76.712075 
1286.005736  	75.924067 
1287.442614  	75.148823 
1288.879492  	74.366755 
1290.316370  	73.606540 
1291.753248  	72.903672 
1293.190125  	72.218566 
1294.627003  	71.616157 
1296.063881  	71.055052 
1297.500759  	70.493823 
1298.937637  	70.040208 
1300.374515  	69.649632 
1301.811393  	69.367972 
1303.248271  	69.237948 
1304.685149  	69.142832 
1306.122027  	69.174541 
1307.558905  	69.300925 
1308.995783  	69.434669 
1310.432660  	69.689472 
1311.869538  	69.989757 
1313.306416  	70.355393 
1314.743294  	70.852564 
1316.180172  	71.373486 
1317.617050  	72.041845 
1319.053928  	72.853837 
1320.490806  	73.678459 
1321.927684  	74.594602 
1323.364562  	75.511110 
1324.801440  	76.297026 
1326.238318  	77.059177 
1327.675195  	77.629071 
1329.112073  	77.996787 
1330.548951  	78.137681 
1331.985829  	77.997506 
1333.422707  	77.640699 
1334.859585  	77.053719 
1336.296463  	76.179338 
1337.733341  	75.237352 
1339.170219  	74.424899 
1340.607097  	74.123709 
1342.043975  	74.642339 
1343.480853  	75.716053 
1344.917730  	77.116326 
1346.354608  	78.419034 
1347.791486  	79.049241 
1349.228364  	79.403605 
1350.665242  	79.985410 
1352.102120  	80.304788 
1353.538998  	79.825493 
1354.975876  	78.960497 
1356.412754  	78.070972 
1357.849632  	77.147662 
1359.286510  	75.326162 
1360.723388  	73.211722 
1362.160265  	70.777953 
1363.597143  	68.102858 
1365.034021  	66.076615 
1366.470899  	64.787208 
1367.907777  	64.756344 
1369.344655  	65.352506 
1370.781533  	66.026818 
1372.218411  	66.238860 
1373.655289  	65.501257 
1375.092167  	63.679625 
1376.529045  	61.887292 
1377.965923  	60.534258 
1379.402800  	60.873951 
1380.839678  	63.162716 
1382.276556  	65.805885 
1383.713434  	69.630288 
1385.150312  	72.756929 
1386.587190  	75.084088 
1388.024068  	77.098723 
1389.460946  	78.193362 
1390.897824  	79.312568 
1392.334702  	79.313221 
1393.771580  	79.178235 
1395.208458  	79.015666 
1396.645335  	78.790146 
1398.082213  	78.525198 
1399.519091  	78.245820 
1400.955969  	77.941112 
1402.392847  	77.635843 
1403.829725  	77.328041 
1405.266603  	77.075132 
1406.703481  	76.907073 
1408.140359  	76.769847 
1409.577237  	76.791789 
1411.014115  	76.994900 
1412.450993  	77.293479 
1413.887871  	77.671168 
1415.324748  	78.045767 
1416.761626  	78.316809 
1418.198504  	78.620295 
1419.635382  	79.063736 
1421.072260  	79.454078 
1422.509138  	79.674986 
1423.946016  	79.886098 
1425.382894  	80.215152 
1426.819772  	80.446515 
1428.256650  	80.638162 
1429.693528  	80.889391 
1431.130406  	81.122689 
1432.567283  	81.358124 
1434.004161  	81.577095 
1435.441039  	81.741542 
1436.877917  	82.011813 
1438.314795  	82.276797 
1439.751673  	82.435860 
1441.188551  	82.589909 
1442.625429  	82.683323 
1444.062307  	82.741219 
1445.499185  	82.525842 
1446.936063  	82.120214 
1448.372941  	81.590633 
1449.809818  	80.914289 
1451.246696  	80.172885 
1452.683574  	79.416449 
1454.120452  	78.815975 
1455.557330  	78.351395 
1456.994208  	77.953659 
1458.431086  	77.548610 
1459.867964  	76.953147 
1461.304842  	76.262534 
1462.741720  	75.507988 
1464.178598  	74.817762 
1465.615476  	74.419864 
1467.052353  	74.208434 
1468.489231  	74.693690 
1469.926109  	75.882730 
1471.362987  	77.161319 
1472.799865  	79.120085 
1474.236743  	80.745228 
1475.673621  	81.628415 
1477.110499  	82.749553 
1478.547377  	83.532278 
1479.984255  	84.126607 
1481.421133  	84.827644 
1482.858011  	85.323439 
1484.294888  	85.811518 
1485.731766  	86.131229 
1487.168644  	86.409303 
1488.605522  	86.713376 
1490.042400  	86.945176 
1491.479278  	87.230559 
1492.916156  	87.495589 
1494.353034  	87.650141 
1495.789912  	87.858221 
1497.226790  	88.073190 
1498.663668  	88.232991 
1500.100546  	88.452670 
1501.537423  	88.631664 
1502.974301  	88.786607 
1504.411179  	88.862850 
1505.848057  	88.883560 
1507.284935  	88.951225 
1508.721813  	89.057288 
1510.158691  	89.113095 
1511.595569  	89.204979 
1513.032447  	89.257816 
1514.469325  	89.303321 
1515.906203  	89.356340 
1517.343081  	89.391506 
1518.779958  	89.443571 
1520.216836  	89.469589 
1521.653714  	89.486902 
1523.090592  	89.586089 
1524.527470  	89.600552 
1525.964348  	89.627593 
1527.401226  	89.684238 
1528.838104  	89.699973 
1530.274982  	89.748322 
1531.711860  	89.750158 
1533.148738  	89.718005 
1534.585616  	89.775713 
1536.022493  	89.786400 
1537.459371  	89.781039 
1538.896249  	89.809597 
1540.333127  	89.795102 
1541.770005  	89.838905 
1543.206883  	89.863873 
1544.643761  	89.823932 
1546.080639  	89.874642 
1547.517517  	89.894725 
1548.954395  	89.876851 
1550.391273  	89.872091 
1551.828151  	89.875532 
1553.265028  	89.877627 
1554.701906  	89.893540 
1556.138784  	89.874969 
1557.575662  	89.869806 
1559.012540  	89.863191 
1560.449418  	89.915964 
1561.886296  	89.927150 
1563.323174  	89.906674 
1564.760052  	89.908474 
1566.196930  	89.910998 
1567.633808  	89.879651 
1569.070686  	89.882981 
1570.507563  	89.895634 
1571.944441  	89.875794 
1573.381319  	89.861549 
1574.818197  	89.838622 
1576.255075  	89.848738 
1577.691953  	89.870347 
1579.128831  	89.835369 
1580.565709  	89.816708 
1582.002587  	89.798777 
1583.439465  	89.781311 
1584.876343  	89.790265 
1586.313221  	89.771709 
1587.750098  	89.754334 
1589.186976  	89.740509 
1590.623854  	89.714805 
1592.060732  	89.704615 
1593.497610  	89.706610 
1594.934488  	89.691571 
1596.371366  	89.688869 
1597.808244  	89.677568 
1599.245122  	89.650490 
1600.682000  	89.633850 
1602.118878  	89.613943 
1603.555756  	89.632346 
1604.992633  	89.626909 
1606.429511  	89.585715 
1607.866389  	89.592695 
1609.303267  	89.574457 
1610.740145  	89.546478 
1612.177023  	89.557696 
1613.613901  	89.503700 
1615.050779  	89.450486 
1616.487657  	89.423827 
1617.924535  	89.426047 
1619.361413  	89.414559 
1620.798291  	89.358492 
1622.235168  	89.322020 
1623.672046  	89.313653 
1625.108924  	89.257431 
1626.545802  	89.196777 
1627.982680  	89.161397 
1629.419558  	89.134393 
1630.856436  	89.086101 
1632.293314  	89.033276 
1633.730192  	88.989851 
1635.167070  	88.984911 
1636.603948  	89.015545 
1638.040826  	89.007156 
1639.477703  	88.968441 
1640.914581  	88.930701 
1642.351459  	88.905485 
1643.788337  	88.873376 
1645.225215  	88.862125 
1646.662093  	88.866015 
1648.098971  	88.873973 
1649.535849  	88.861140 
1650.972727  	88.820148 
1652.409605  	88.789630 
1653.846483  	88.888954 
1655.283361  	88.881786 
1656.720239  	88.831206 
1658.157116  	88.826485 
1659.593994  	88.811268 
1661.030872  	88.798897 
1662.467750  	88.815346 
1663.904628  	88.818400 
1665.341506  	88.789259 
1666.778384  	88.777393 
1668.215262  	88.791239 
1669.652140  	88.829394 
1671.089018  	88.857553 
1672.525896  	88.901827 
1673.962774  	88.899432 
1675.399651  	88.903403 
1676.836529  	88.952912 
1678.273407  	88.935516 
1679.710285  	88.915208 
1681.147163  	88.926168 
1682.584041  	88.899118 
1684.020919  	88.916073 
1685.457797  	89.017066 
1686.894675  	88.993390 
1688.331553  	88.966627 
1689.768431  	88.972303 
1691.205309  	88.966084 
1692.642186  	88.957531 
1694.079064  	88.909613 
1695.515942  	88.867069 
1696.952820  	88.901535 
1698.389698  	88.853948 
1699.826576  	88.806028 
1701.263454  	88.834745 
1702.700332  	88.764473 
1704.137210  	88.677141 
1705.574088  	88.640871 
1707.010966  	88.596097 
1708.447844  	88.515178 
1709.884721  	88.467003 
1711.321599  	88.455717 
1712.758477  	88.479559 
1714.195355  	88.522310 
1715.632233  	88.574267 
1717.069111  	88.612466 
1718.505989  	88.702106 
1719.942867  	88.766911 
1721.379745  	88.765260 
1722.816623  	88.785188 
1724.253501  	88.822007 
1725.690379  	88.835698 
1727.127256  	88.847780 
1728.564134  	88.826569 
1730.001012  	88.828581 
1731.437890  	88.827413 
1732.874768  	88.778461 
1734.311646  	88.780858 
1735.748524  	88.849484 
1737.185402  	88.794056 
1738.622280  	88.738512 
1740.059158  	88.754693 
1741.496036  	88.750326 
1742.932914  	88.705465 
1744.369791  	88.678056 
1745.806669  	88.646954 
1747.243547  	88.630909 
1748.680425  	88.611405 
1750.117303  	88.584388 
1751.554181  	88.560996 
1752.991059  	88.572923 
1754.427937  	88.543389 
1755.864815  	88.479588 
1757.301693  	88.446789 
1758.738571  	88.409982 
1760.175449  	88.335340 
1761.612326  	88.267312 
1763.049204  	88.223209 
1764.486082  	88.190012 
1765.922960  	88.132586 
1767.359838  	88.122809 
1768.796716  	88.164691 
1770.233594  	88.194066 
1771.670472  	88.238067 
1773.107350  	88.364992 
1774.544228  	88.432912 
1775.981106  	88.478072 
1777.417984  	88.552311 
1778.854861  	88.589493 
1780.291739  	88.633256 
1781.728617  	88.705391 
1783.165495  	88.730703 
1784.602373  	88.747143 
1786.039251  	88.777748 
1787.476129  	88.794409 
1788.913007  	88.777785 
1790.349885  	88.735285 
1791.786763  	88.739676 
1793.223641  	88.840712 
1794.660519  	88.815679 
1796.097396  	88.764830 
1797.534274  	88.778341 
1798.971152  	88.761319 
1800.408030  	88.766866 
1801.844908  	88.791215 
1803.281786  	88.768895 
1804.718664  	88.783759 
1806.155542  	88.808839 
1807.592420  	88.805769 
1809.029298  	88.790922 
1810.466176  	88.770008 
1811.903054  	88.777881 
1813.339931  	88.827339 
1814.776809  	88.832179 
1816.213687  	88.799390 
1817.650565  	88.787097 
1819.087443  	88.787846 
1820.524321  	88.785850 
1821.961199  	88.780904 
1823.398077  	88.782711 
1824.834955  	88.779613 
1826.271833  	88.761919 
1827.708711  	88.739198 
1829.145589  	88.692710 
1830.582466  	88.713540 
1832.019344  	88.748829 
1833.456222  	88.734927 
1834.893100  	88.709724 
1836.329978  	88.698096 
1837.766856  	88.679047 
1839.203734  	88.675743 
1840.640612  	88.669862 
1842.077490  	88.654869 
1843.514368  	88.650397 
1844.951246  	88.647352 
1846.388124  	88.663126 
1847.825001  	88.695206 
1849.261879  	88.737420 
1850.698757  	88.731810 
1852.135635  	88.640838 
1853.572513  	88.603168 
1855.009391  	88.590856 
1856.446269  	88.582124 
1857.883147  	88.592100 
1859.320025  	88.588206 
1860.756903  	88.562607 
1862.193781  	88.575054 
1863.630659  	88.593755 
1865.067536  	88.611323 
1866.504414  	88.620953 
1867.941292  	88.581870 
1869.378170  	88.580789 
1870.815048  	88.616344 
1872.251926  	88.574022 
1873.688804  	88.519670 
1875.125682  	88.532631 
1876.562560  	88.547102 
1877.999438  	88.531468 
1879.436316  	88.518853 
1880.873194  	88.524262 
1882.310072  	88.525691 
1883.746949  	88.520346 
1885.183827  	88.541555 
1886.620705  	88.556745 
1888.057583  	88.518011 
1889.494461  	88.481469 
1890.931339  	88.444011 
1892.368217  	88.419675 
1893.805095  	88.409726 
1895.241973  	88.417102 
1896.678851  	88.446829 
1898.115729  	88.477381 
1899.552607  	88.478560 
1900.989484  	88.416050 
1902.426362  	88.324745 
1903.863240  	88.279547 
1905.300118  	88.335685 
1906.736996  	88.382906 
1908.173874  	88.393658 
1909.610752  	88.384460 
1911.047630  	88.419559 
1912.484508  	88.500939 
1913.921386  	88.458908 
1915.358264  	88.482347 
1916.795142  	88.524130 
1918.232019  	88.473473 
1919.668897  	88.428362 
1921.105775  	88.440144 
1922.542653  	88.425476 
1923.979531  	88.398549 
1925.416409  	88.359492 
1926.853287  	88.340101 
1928.290165  	88.391506 
1929.727043  	88.395610 
1931.163921  	88.399607 
1932.600799  	88.436492 
1934.037677  	88.451282 
1935.474554  	88.491869 
1936.911432  	88.493610 
1938.348310  	88.425113 
1939.785188  	88.458071 
1941.222066  	88.515821 
1942.658944  	88.491610 
1944.095822  	88.472260 
1945.532700  	88.544819 
1946.969578  	88.608339 
1948.406456  	88.603524 
1949.843334  	88.548535 
1951.280212  	88.565425 
1952.717089  	88.484475 
1954.153967  	88.360537 
1955.590845  	88.448357 
1957.027723  	88.542511 
1958.464601  	88.519247 
1959.901479  	88.515716 
1961.338357  	88.647092 
1962.775235  	88.872400 
1964.212113  	88.817383 
1965.648991  	88.532555 
1967.085869  	88.447016 
1968.522747  	88.502979 
1969.959624  	88.486383 
1971.396502  	88.483288 
1972.833380  	88.472616 
1974.270258  	88.408667 
1975.707136  	88.318197 
1977.144014  	88.328916 
1978.580892  	88.404146 
1980.017770  	88.429099 
1981.454648  	88.439038 
1982.891526  	88.404002 
1984.328404  	88.372116 
1985.765282  	88.447568 
1987.202159  	88.437697 
1988.639037  	88.275451 
1990.075915  	88.239388 
1991.512793  	88.324888 
1992.949671  	88.381853 
1994.386549  	88.535869 
1995.823427  	88.656484 
1997.260305  	88.454334 
1998.697183  	88.366310 
2000.134061  	88.696515 
2001.570939  	88.810166 
2003.007817  	88.542196 
2004.444694  	88.436955 
2005.881572  	88.558176 
2007.318450  	88.773457 
2008.755328  	88.824552 
2010.192206  	88.520293 
2011.629084  	88.496877 
2013.065962  	88.681397 
2014.502840  	88.369318 
2015.939718  	88.183408 
2017.376596  	88.588684 
2018.813474  	88.804174 
2020.250352  	88.644469 
2021.687229  	88.543370 
2023.124107  	88.662428 
2024.560985  	88.765622 
2025.997863  	88.581538 
2027.434741  	88.468889 
2028.871619  	88.576380 
2030.308497  	88.568575 
2031.745375  	88.562566 
2033.182253  	88.635405 
2034.619131  	88.593081 
2036.056009  	88.542014 
2037.492887  	88.531141 
2038.929764  	88.411090 
2040.366642  	88.160259 
2041.803520  	88.058683 
2043.240398  	88.224890 
2044.677276  	88.313870 
2046.114154  	88.200279 
2047.551032  	88.127117 
2048.987910  	88.062348 
2050.424788  	87.979925 
2051.861666  	88.032502 
2053.298544  	88.106989 
2054.735422  	87.991159 
2056.172299  	87.833318 
2057.609177  	87.905283 
2059.046055  	88.022415 
2060.482933  	87.897823 
2061.919811  	87.742294 
2063.356689  	87.818694 
2064.793567  	87.940920 
2066.230445  	87.869640 
2067.667323  	87.738385 
2069.104201  	87.759289 
2070.541079  	87.812918 
2071.977957  	87.730818 
2073.414834  	87.700665 
2074.851712  	87.838813 
2076.288590  	87.895999 
2077.725468  	87.825556 
2079.162346  	87.797172 
2080.599224  	87.745649 
2082.036102  	87.687378 
2083.472980  	87.790177 
2084.909858  	87.879367 
2086.346736  	87.782386 
2087.783614  	87.703033 
2089.220492  	87.756681 
2090.657369  	87.834540 
2092.094247  	87.824568 
2093.531125  	87.703026 
2094.968003  	87.656586 
2096.404881  	87.768997 
2097.841759  	87.779208 
2099.278637  	87.642266 
2100.715515  	87.583423 
2102.152393  	87.635338 
2103.589271  	87.697110 
2105.026149  	87.703200 
2106.463027  	87.648305 
2107.899904  	87.572959 
2109.336782  	87.526618 
2110.773660  	87.569671 
2112.210538  	87.655555 
2113.647416  	87.662848 
2115.084294  	87.586879 
2116.521172  	87.560031 
2117.958050  	87.647771 
2119.394928  	87.666341 
2120.831806  	87.568806 
2122.268684  	87.625221 
2123.705562  	87.742488 
2125.142440  	87.702514 
2126.579317  	87.711993 
2128.016195  	87.732848 
2129.453073  	87.660451 
2130.889951  	87.834928 
2132.326829  	88.171854 
2133.763707  	88.226750 
2135.200585  	88.018451 
2136.637463  	87.836804 
2138.074341  	87.941015 
2139.511219  	88.155859 
2140.948097  	88.087127 
2142.384975  	87.925162 
2143.821852  	87.850570 
2145.258730  	87.821881 
2146.695608  	87.986131 
2148.132486  	88.184555 
2149.569364  	88.301553 
2151.006242  	88.344837 
2152.443120  	88.034323 
2153.879998  	87.641293 
2155.316876  	87.493263 
2156.753754  	87.508974 
2158.190632  	87.821592 
2159.627510  	88.068639 
2161.064387  	88.057702 
2162.501265  	88.089129 
2163.938143  	87.831988 
2165.375021  	87.700004 
2166.811899  	87.948706 
2168.248777  	87.798686 
2169.685655  	87.621243 
2171.122533  	87.881349 
2172.559411  	87.907062 
2173.996289  	87.746671 
2175.433167  	87.758456 
2176.870045  	87.596653 
2178.306922  	87.318159 
2179.743800  	87.301913 
2181.180678  	87.461351 
2182.617556  	87.492537 
2184.054434  	87.439153 
2185.491312  	87.446457 
2186.928190  	87.385366 
2188.365068  	87.320753 
2189.801946  	87.381858 
2191.238824  	87.396696 
2192.675702  	87.328576 
2194.112580  	87.309338 
2195.549457  	87.391118 
2196.986335  	87.501978 
2198.423213  	87.577371 
2199.860091  	87.744576 
2201.296969  	87.843990 
2202.733847  	87.655046 
2204.170725  	87.546757 
2205.607603  	87.525293 
2207.044481  	87.329867 
2208.481359  	87.288010 
2209.918237  	87.384263 
2211.355115  	87.400729 
2212.791992  	87.489667 
2214.228870  	87.547000 
2215.665748  	87.549517 
2217.102626  	87.561384 
2218.539504  	87.344945 
2219.976382  	87.170585 
2221.413260  	87.346385 
2222.850138  	87.504179 
2224.287016  	87.464531 
2225.723894  	87.401275 
2227.160772  	87.390287 
2228.597650  	87.415944 
2230.034527  	87.385892 
2231.471405  	87.371782 
2232.908283  	87.475932 
2234.345161  	87.506679 
2235.782039  	87.390896 
2237.218917  	87.321305 
2238.655795  	87.322066 
2240.092673  	87.311426 
2241.529551  	87.353088 
2242.966429  	87.422562 
2244.403307  	87.397963 
2245.840185  	87.331248 
2247.277062  	87.252900 
2248.713940  	87.146910 
2250.150818  	87.191121 
2251.587696  	87.276376 
2253.024574  	87.289390 
2254.461452  	87.217807 
2255.898330  	87.140717 
2257.335208  	87.139287 
2258.772086  	87.137371 
2260.208964  	87.061967 
2261.645842  	87.068367 
2263.082720  	87.135603 
2264.519597  	87.096124 
2265.956475  	87.016267 
2267.393353  	87.003405 
2268.830231  	86.992143 
2270.267109  	87.004581 
2271.703987  	87.021658 
2273.140865  	86.960336 
2274.577743  	86.923223 
2276.014621  	86.934978 
2277.451499  	86.931865 
2278.888377  	86.918034 
2280.325255  	86.947931 
2281.762132  	86.944739 
2283.199010  	86.918153 
2284.635888  	86.921408 
2286.072766  	86.922992 
2287.509644  	86.898782 
2288.946522  	86.902061 
2290.383400  	86.902154 
2291.820278  	86.890397 
2293.257156  	86.899128 
2294.694034  	86.899347 
2296.130912  	86.869180 
2297.567790  	86.850007 
2299.004667  	86.861821 
2300.441545  	86.863695 
2301.878423  	86.816268 
2303.315301  	86.779652 
2304.752179  	86.834082 
2306.189057  	86.868676 
2307.625935  	86.845840 
2309.062813  	86.839032 
2310.499691  	86.793801 
2311.936569  	86.735627 
2313.373447  	86.748952 
2314.810325  	86.787517 
2316.247202  	86.802989 
2317.684080  	86.775014 
2319.120958  	86.776025 
2320.557836  	86.848101 
2321.994714  	86.828843 
2323.431592  	86.767897 
2324.868470  	86.823063 
2326.305348  	86.872843 
2327.742226  	86.882707 
2329.179104  	86.899067 
2330.615982  	86.888415 
2332.052860  	86.939744 
2333.489737  	87.014284 
2334.926615  	86.971689 
2336.363493  	86.929804 
2337.800371  	86.946135 
2339.237249  	86.952307 
2340.674127  	86.970823 
2342.111005  	86.940333 
2343.547883  	86.863337 
2344.984761  	86.888635 
2346.421639  	86.955497 
2347.858517  	86.931568 
2349.295395  	86.886115 
2350.732273  	86.868893 
2352.169150  	86.844491 
2353.606028  	86.785948 
2355.042906  	86.737520 
2356.479784  	86.704021 
2357.916662  	86.694042 
2359.353540  	86.743507 
2360.790418  	86.744863 
2362.227296  	86.646190 
2363.664174  	86.592811 
2365.101052  	86.623908 
2366.537930  	86.636154 
2367.974808  	86.584343 
2369.411685  	86.519452 
2370.848563  	86.505416 
2372.285441  	86.522090 
2373.722319  	86.510206 
2375.159197  	86.469577 
2376.596075  	86.453064 
2378.032953  	86.488957 
2379.469831  	86.531664 
2380.906709  	86.514295 
2382.343587  	86.453480 
2383.780465  	86.430432 
2385.217343  	86.450166 
2386.654220  	86.448535 
2388.091098  	86.429708 
2389.527976  	86.421403 
2390.964854  	86.420828 
2392.401732  	86.417629 
2393.838610  	86.375929 
2395.275488  	86.313648 
2396.712366  	86.327506 
2398.149244  	86.381213 
2399.586122  	86.378114 
2401.023000  	86.362539 
2402.459878  	86.351743 
2403.896755  	86.307446 
2405.333633  	86.296737 
2406.770511  	86.361152 
2408.207389  	86.420764 
2409.644267  	86.402321 
2411.081145  	86.321740 
2412.518023  	86.273082 
2413.954901  	86.313462 
2415.391779  	86.366680 
2416.828657  	86.342193 
2418.265535  	86.295705 
2419.702413  	86.310455 
2421.139290  	86.327822 
2422.576168  	86.304451 
2424.013046  	86.314886 
2425.449924  	86.369928 
2426.886802  	86.402408 
2428.323680  	86.403250 
2429.760558  	86.425951 
2431.197436  	86.470270 
2432.634314  	86.453292 
2434.071192  	86.410894 
2435.508070  	86.443679 
2436.944948  	86.460568 
2438.381825  	86.413104 
2439.818703  	86.414124 
2441.255581  	86.452778 
2442.692459  	86.473687 
2444.129337  	86.482603 
2445.566215  	86.460110 
2447.003093  	86.423616 
2448.439971  	86.391123 
2449.876849  	86.366937 
2451.313727  	86.365718 
2452.750605  	86.355991 
2454.187483  	86.369967 
2455.624360  	86.402980 
2457.061238  	86.350125 
2458.498116  	86.307798 
2459.934994  	86.354514 
2461.371872  	86.331895 
2462.808750  	86.244281 
2464.245628  	86.213971 
2465.682506  	86.230609 
2467.119384  	86.264354 
2468.556262  	86.260274 
2469.993140  	86.199639 
2471.430018  	86.154980 
2472.866895  	86.126829 
2474.303773  	86.103642 
2475.740651  	86.108936 
2477.177529  	86.116026 
2478.614407  	86.114630 
2480.051285  	86.110027 
2481.488163  	86.097573 
2482.925041  	86.094948 
2484.361919  	86.097135 
2485.798797  	86.095236 
2487.235675  	86.090172 
2488.672553  	86.075164 
2490.109430  	86.079741 
2491.546308  	86.091772 
2492.983186  	86.050705 
2494.420064  	85.997584 
2495.856942  	85.985922 
2497.293820  	85.972483 
2498.730698  	85.962932 
2500.167576  	85.999796 
2501.604454  	86.006910 
2503.041332  	85.935078 
2504.478210  	85.873652 
2505.915088  	85.856904 
2507.351965  	85.848846 
2508.788843  	85.832500 
2510.225721  	85.773746 
2511.662599  	85.725789 
2513.099477  	85.750983 
2514.536355  	85.752833 
2515.973233  	85.723340 
2517.410111  	85.738569 
2518.846989  	85.738110 
2520.283867  	85.729577 
2521.720745  	85.759602 
2523.157623  	85.746044 
2524.594500  	85.712438 
2526.031378  	85.719946 
2527.468256  	85.713106 
2528.905134  	85.731932 
2530.342012  	85.789764 
2531.778890  	85.762542 
2533.215768  	85.701771 
2534.652646  	85.729556 
2536.089524  	85.774629 
2537.526402  	85.779494 
2538.963280  	85.783083 
2540.400158  	85.789963 
2541.837035  	85.796018 
2543.273913  	85.781823 
2544.710791  	85.745155 
2546.147669  	85.750802 
2547.584547  	85.778412 
2549.021425  	85.761273 
2550.458303  	85.746300 
2551.895181  	85.751772 
2553.332059  	85.744711 
2554.768937  	85.751115 
2556.205815  	85.736911 
2557.642693  	85.657621 
2559.079570  	85.615939 
2560.516448  	85.668457 
2561.953326  	85.674975 
2563.390204  	85.549473 
2564.827082  	85.441356 
2566.263960  	85.448322 
2567.700838  	85.459265 
2569.137716  	85.451022 
2570.574594  	85.455773 
2572.011472  	85.402676 
2573.448350  	85.349643 
2574.885228  	85.378609 
2576.322105  	85.381697 
2577.758983  	85.326991 
2579.195861  	85.310074 
2580.632739  	85.341795 
2582.069617  	85.345697 
2583.506495  	85.289747 
2584.943373  	85.266638 
2586.380251  	85.308829 
2587.817129  	85.318859 
2589.254007  	85.291658 
2590.690885  	85.271975 
2592.127763  	85.283279 
2593.564641  	85.342269 
2595.001518  	85.349090 
2596.438396  	85.288070 
2597.875274  	85.286295 
2599.312152  	85.297837 
2600.749030  	85.266913 
2602.185908  	85.283777 
2603.622786  	85.322015 
2605.059664  	85.300345 
2606.496542  	85.261512 
2607.933420  	85.277555 
2609.370298  	85.327898 
2610.807176  	85.322408 
2612.244053  	85.279746 
2613.680931  	85.277171 
2615.117809  	85.273249 
2616.554687  	85.254082 
2617.991565  	85.261326 
2619.428443  	85.258734 
2620.865321  	85.246566 
2622.302199  	85.273473 
2623.739077  	85.310959 
2625.175955  	85.303563 
2626.612833  	85.262989 
2628.049711  	85.262080 
2629.486588  	85.298532 
2630.923466  	85.278479 
2632.360344  	85.217901 
2633.797222  	85.183754 
2635.234100  	85.132685 
2636.670978  	85.062924 
2638.107856  	85.035474 
2639.544734  	85.012546 
2640.981612  	84.948707 
2642.418490  	84.881917 
2643.855368  	84.830955 
2645.292246  	84.788857 
2646.729123  	84.754548 
2648.166001  	84.699015 
2649.602879  	84.618627 
2651.039757  	84.546333 
2652.476635  	84.483826 
2653.913513  	84.431574 
2655.350391  	84.392579 
2656.787269  	84.355329 
2658.224147  	84.337749 
2659.661025  	84.348255 
2661.097903  	84.383342 
2662.534781  	84.451303 
2663.971658  	84.517032 
2665.408536  	84.578369 
2666.845414  	84.679288 
2668.282292  	84.777905 
2669.719170  	84.832010 
2671.156048  	84.878729 
2672.592926  	84.938840 
2674.029804  	85.002076 
2675.466682  	85.030896 
2676.903560  	85.014581 
2678.340438  	85.016994 
2679.777316  	85.035107 
2681.214193  	85.026894 
2682.651071  	85.023544 
2684.087949  	85.000606 
2685.524827  	84.923290 
2686.961705  	84.860738 
2688.398583  	84.831749 
2689.835461  	84.794295 
2691.272339  	84.753379 
2692.709217  	84.710974 
2694.146095  	84.646358 
2695.582973  	84.559939 
2697.019851  	84.491685 
2698.456728  	84.473624 
2699.893606  	84.469286 
2701.330484  	84.453700 
2702.767362  	84.453638 
2704.204240  	84.455805 
2705.641118  	84.429303 
2707.077996  	84.392722 
2708.514874  	84.366343 
2709.951752  	84.337236 
2711.388630  	84.303311 
2712.825508  	84.299363 
2714.262386  	84.316175 
2715.699263  	84.276997 
2717.136141  	84.195872 
2718.573019  	84.173997 
2720.009897  	84.197412 
2721.446775  	84.193448 
2722.883653  	84.187413 
2724.320531  	84.209300 
2725.757409  	84.237600 
2727.194287  	84.255770 
2728.631165  	84.251871 
2730.068043  	84.255873 
2731.504921  	84.287830 
2732.941798  	84.294480 
2734.378676  	84.298949 
2735.815554  	84.347600 
2737.252432  	84.362098 
2738.689310  	84.339357 
2740.126188  	84.357576 
2741.563066  	84.380597 
2742.999944  	84.386638 
2744.436822  	84.398100 
2745.873700  	84.380876 
2747.310578  	84.357314 
2748.747456  	84.355004 
2750.184333  	84.315171 
2751.621211  	84.256569 
2753.058089  	84.244567 
2754.494967  	84.236287 
2755.931845  	84.196883 
2757.368723  	84.176018 
2758.805601  	84.171667 
2760.242479  	84.130009 
2761.679357  	84.073387 
2763.116235  	84.052830 
2764.553113  	84.055729 
2765.989991  	84.043656 
2767.426868  	83.995197 
2768.863746  	83.940754 
2770.300624  	83.916708 
2771.737502  	83.890670 
2773.174380  	83.861513 
2774.611258  	83.846314 
2776.048136  	83.795099 
2777.485014  	83.734386 
2778.921892  	83.721148 
2780.358770  	83.708857 
2781.795648  	83.686085 
2783.232526  	83.657851 
2784.669403  	83.592645 
2786.106281  	83.537798 
2787.543159  	83.522733 
2788.980037  	83.499686 
2790.416915  	83.462132 
2791.853793  	83.420982 
2793.290671  	83.376195 
2794.727549  	83.345283 
2796.164427  	83.333828 
2797.601305  	83.306152 
2799.038183  	83.234544 
2800.475061  	83.181887 
2801.911938  	83.175980 
2803.348816  	83.116965 
2804.785694  	82.992210 
2806.222572  	82.894681 
2807.659450  	82.842496 
2809.096328  	82.799358 
2810.533206  	82.735567 
2811.970084  	82.665315 
2813.406962  	82.606523 
2814.843840  	82.529597 
2816.280718  	82.468745 
2817.717596  	82.453232 
2819.154474  	82.413201 
2820.591351  	82.348969 
2822.028229  	82.304419 
2823.465107  	82.255972 
2824.901985  	82.188209 
2826.338863  	82.104578 
2827.775741  	82.014234 
2829.212619  	81.923612 
2830.649497  	81.832639 
2832.086375  	81.750480 
2833.523253  	81.645446 
2834.960131  	81.524181 
2836.397009  	81.434534 
2837.833886  	81.326210 
2839.270764  	81.197280 
2840.707642  	81.090634 
2842.144520  	80.934189 
2843.581398  	80.739296 
2845.018276  	80.576889 
2846.455154  	80.398873 
2847.892032  	80.188461 
2849.328910  	79.972960 
2850.765788  	79.755282 
2852.202666  	79.536543 
2853.639544  	79.288044 
2855.076421  	79.012778 
2856.513299  	78.731006 
2857.950177  	78.457035 
2859.387055  	78.219986 
2860.823933  	77.967113 
2862.260811  	77.687831 
2863.697689  	77.447971 
2865.134567  	77.201072 
2866.571445  	76.926727 
2868.008323  	76.665462 
2869.445201  	76.397917 
2870.882079  	76.125237 
2872.318956  	75.836400 
2873.755834  	75.538920 
2875.192712  	75.281002 
2876.629590  	75.034544 
2878.066468  	74.813124 
2879.503346  	74.655013 
2880.940224  	74.550219 
2882.377102  	74.534826 
2883.813980  	74.575144 
2885.250858  	74.640162 
2886.687736  	74.794922 
2888.124614  	75.005617 
2889.561491  	75.218779 
2890.998369  	75.419920 
2892.435247  	75.580812 
2893.872125  	75.744793 
2895.309003  	75.909667 
2896.745881  	76.043199 
2898.182759  	76.199059 
2899.619637  	76.333662 
2901.056515  	76.382457 
2902.493393  	76.427498 
2903.930271  	76.518316 
2905.367149  	76.599334 
2906.804026  	76.600869 
2908.240904  	76.532686 
2909.677782  	76.456515 
2911.114660  	76.346845 
2912.551538  	76.201116 
2913.988416  	76.085838 
2915.425294  	75.966577 
2916.862172  	75.815220 
2918.299050  	75.699315 
2919.735928  	75.637994 
2921.172806  	75.584789 
2922.609684  	75.523510 
2924.046561  	75.466341 
2925.483439  	75.349116 
2926.920317  	75.143686 
2928.357195  	74.966781 
2929.794073  	74.856307 
2931.230951  	74.785431 
2932.667829  	74.792796 
2934.104707  	74.867814 
2935.541585  	75.001806 
2936.978463  	75.201845 
2938.415341  	75.463182 
2939.852219  	75.807566 
2941.289096  	76.163169 
2942.725974  	76.489386 
2944.162852  	76.809624 
2945.599730  	76.992730 
2947.036608  	76.980202 
2948.473486  	76.842396 
2949.910364  	76.513207 
2951.347242  	75.969597 
2952.784120  	75.263070 
2954.220998  	74.326104 
2955.657876  	73.123660 
2957.094754  	71.629316 
2958.531631  	69.784348 
2959.968509  	67.635455 
2961.405387  	65.210492 
2962.842265  	62.542959 
2964.279143  	59.727468 
2965.716021  	56.975249 
2967.152899  	54.709233 
2968.589777  	53.229690 
2970.026655  	52.864978 
2971.463533  	53.828853 
2972.900411  	55.756738 
2974.337289  	58.320660 
2975.774166  	61.218443 
2977.211044  	64.150809 
2978.647922  	67.127835 
2980.084800  	69.999557 
2981.521678  	72.599074 
2982.958556  	74.966031 
2984.395434  	77.027884 
2985.832312  	78.734980 
2987.269190  	80.119540 
2988.706068  	81.196534 
2990.142946  	82.051170 
2991.579824  	82.725205 
2993.016701  	83.207738 
2994.453579  	83.591855 
2995.890457  	83.948241 
2997.327335  	84.260995 
2998.764213  	84.504997 
3000.201091  	84.652822 
3001.637969  	84.754757 
3003.074847  	84.878617 
3004.511725  	85.008070 
3005.948603  	85.126675 
3007.385481  	85.209732 
3008.822359  	85.260349 
3010.259236  	85.321119 
3011.696114  	85.353651 
3013.132992  	85.369761 
3014.569870  	85.415399 
3016.006748  	85.425503 
3017.443626  	85.443283 
3018.880504  	85.517411 
3020.317382  	85.521851 
3021.754260  	85.476647 
3023.191138  	85.489645 
3024.628016  	85.505294 
3026.064894  	85.480151 
3027.501771  	85.451823 
3028.938649  	85.447369 
3030.375527  	85.446914 
3031.812405  	85.434838 
3033.249283  	85.447434 
3034.686161  	85.432646 
3036.123039  	85.369305 
3037.559917  	85.376725 
3038.996795  	85.399884 
3040.433673  	85.341817 
3041.870551  	85.289971 
3043.307429  	85.251660 
3044.744306  	85.217884 
3046.181184  	85.225129 
3047.618062  	85.200675 
3049.054940  	85.167282 
3050.491818  	85.179560 
3051.928696  	85.140569 
3053.365574  	85.063496 
3054.802452  	85.031103 
3056.239330  	85.011830 
3057.676208  	84.993708 
3059.113086  	84.979547 
3060.549964  	84.941621 
3061.986842  	84.891833 
3063.423719  	84.856362 
3064.860597  	84.840597 
3066.297475  	84.819858 
3067.734353  	84.766746 
3069.171231  	84.706584 
3070.608109  	84.672861 
3072.044987  	84.647974 
3073.481865  	84.604759 
3074.918743  	84.569068 
3076.355621  	84.553922 
3077.792499  	84.512785 
3079.229377  	84.455571 
3080.666254  	84.416362 
3082.103132  	84.355072 
3083.540010  	84.273789 
3084.976888  	84.218169 
3086.413766  	84.188066 
3087.850644  	84.167393 
3089.287522  	84.120500 
3090.724400  	84.039813 
3092.161278  	83.966768 
3093.598156  	83.895482 
3095.035034  	83.825459 
3096.471912  	83.786901 
3097.908789  	83.757663 
3099.345667  	83.724999 
3100.782545  	83.697744 
3102.219423  	83.651148 
3103.656301  	83.586831 
3105.093179  	83.524199 
3106.530057  	83.443759 
3107.966935  	83.325099 
3109.403813  	83.219830 
3110.840691  	83.212231 
3112.277569  	83.231221 
3113.714447  	83.144168 
3115.151324  	83.040918 
3116.588202  	83.011077 
3118.025080  	82.932854 
3119.461958  	82.786183 
3120.898836  	82.665137 
3122.335714  	82.585074 
3123.772592  	82.557673 
3125.209470  	82.505767 
3126.646348  	82.364524 
3128.083226  	82.287772 
3129.520104  	82.254654 
3130.956982  	82.109892 
3132.393859  	82.019798 
3133.830737  	82.053221 
3135.267615  	81.995159 
3136.704493  	81.866846 
3138.141371  	81.803339 
3139.578249  	81.751980 
3141.015127  	81.632882 
3142.452005  	81.486763 
3143.888883  	81.413871 
3145.325761  	81.368361 
3146.762639  	81.259232 
3148.199517  	81.157717 
3149.636394  	81.073994 
3151.073272  	80.944434 
3152.510150  	80.807406 
3153.947028  	80.697584 
3155.383906  	80.617287 
3156.820784  	80.531676 
3158.257662  	80.421982 
3159.694540  	80.333757 
3161.131418  	80.220654 
3162.568296  	80.084221 
3164.005174  	79.992353 
3165.442052  	79.877253 
3166.878929  	79.750875 
3168.315807  	79.629722 
3169.752685  	79.469489 
3171.189563  	79.395642 
3172.626441  	79.318041 
3174.063319  	79.069914 
3175.500197  	78.885964 
3176.937075  	78.826429 
3178.373953  	78.711446 
3179.810831  	78.586970 
3181.247709  	78.495599 
3182.684587  	78.377733 
3184.121464  	78.171837 
3185.558342  	77.942057 
3186.995220  	77.841991 
3188.432098  	77.763710 
3189.868976  	77.645032 
3191.305854  	77.558830 
3192.742732  	77.358182 
3194.179610  	77.111460 
3195.616488  	76.980942 
3197.053366  	76.823116 
3198.490244  	76.660673 
3199.927122  	76.549291 
3201.363999  	76.395785 
3202.800877  	76.233586 
3204.237755  	76.066426 
3205.674633  	75.958953 
3207.111511  	75.927404 
3208.548389  	75.786714 
3209.985267  	75.600182 
3211.422145  	75.434479 
3212.859023  	75.214713 
3214.295901  	75.049429 
3215.732779  	74.902531 
3217.169657  	74.715193 
3218.606534  	74.557028 
3220.043412  	74.354369 
3221.480290  	74.184314 
3222.917168  	74.092456 
3224.354046  	73.948197 
3225.790924  	73.804746 
3227.227802  	73.607862 
3228.664680  	73.352100 
3230.101558  	73.215842 
3231.538436  	73.069355 
3232.975314  	72.882792 
3234.412192  	72.792895 
3235.849069  	72.686462 
3237.285947  	72.552655 
3238.722825  	72.439953 
3240.159703  	72.296154 
3241.596581  	72.098369 
3243.033459  	71.838373 
3244.470337  	71.664422 
3245.907215  	71.596054 
3247.344093  	71.489024 
3248.780971  	71.424276 
3250.217849  	71.329531 
3251.654727  	71.129256 
3253.091604  	70.996630 
3254.528482  	70.857411 
3255.965360  	70.687708 
3257.402238  	70.599638 
3258.839116  	70.513417 
3260.275994  	70.444994 
3261.712872  	70.334232 
3263.149750  	70.147252 
3264.586628  	70.099357 
3266.023506  	70.085815 
3267.460384  	69.931657 
3268.897262  	69.741101 
3270.334139  	69.600385 
3271.771017  	69.580990 
3273.207895  	69.525469 
3274.644773  	69.323358 
3276.081651  	69.234172 
3277.518529  	69.200953 
3278.955407  	69.068741 
3280.392285  	68.996483 
3281.829163  	68.970871 
3283.266041  	68.923788 
3284.702919  	68.840065 
3286.139797  	68.687271 
3287.576674  	68.601649 
3289.013552  	68.596109 
3290.450430  	68.551094 
3291.887308  	68.462238 
3293.324186  	68.354185 
3294.761064  	68.311157 
3296.197942  	68.322260 
3297.634820  	68.288719 
3299.071698  	68.235844 
3300.508576  	68.161393 
3301.945454  	68.081821 
3303.382332  	68.013381 
3304.819210  	67.921769 
3306.256087  	67.907803 
3307.692965  	67.910994 
3309.129843  	67.833932 
3310.566721  	67.850689 
3312.003599  	67.908604 
3313.440477  	67.874878 
3314.877355  	67.827920 
3316.314233  	67.751466 
3317.751111  	67.704460 
3319.187989  	67.755077 
3320.624867  	67.777276 
3322.061745  	67.757713 
3323.498622  	67.742810 
3324.935500  	67.734472 
3326.372378  	67.723683 
3327.809256  	67.687939 
3329.246134  	67.707623 
3330.683012  	67.736431 
3332.119890  	67.682002 
3333.556768  	67.699582 
3334.993646  	67.807427 
3336.430524  	67.862396 
3337.867402  	67.863086 
3339.304280  	67.901844 
3340.741157  	68.033759 
3342.178035  	68.089600 
3343.614913  	68.038599 
3345.051791  	68.113346 
3346.488669  	68.198094 
3347.925547  	68.198219 
3349.362425  	68.304264 
3350.799303  	68.456427 
3352.236181  	68.604289 
3353.673059  	68.728083 
3355.109937  	68.706541 
3356.546815  	68.738843 
3357.983692  	68.927499 
3359.420570  	69.060152 
3360.857448  	69.134447 
3362.294326  	69.236948 
3363.731204  	69.406255 
3365.168082  	69.605884 
3366.604960  	69.700482 
3368.041838  	69.770547 
3369.478716  	69.920362 
3370.915594  	70.055627 
3372.352472  	70.162199 
3373.789350  	70.279001 
3375.226227  	70.426307 
3376.663105  	70.607887 
3378.099983  	70.764996 
3379.536861  	70.916144 
3380.973739  	71.113313 
3382.410617  	71.315435 
3383.847495  	71.486572 
3385.284373  	71.664477 
3386.721251  	71.873200 
3388.158129  	72.058905 
3389.595007  	72.215262 
3391.031885  	72.349690 
3392.468762  	72.439872 
3393.905640  	72.588266 
3395.342518  	72.787437 
3396.779396  	72.942435 
3398.216274  	73.160882 
3399.653152  	73.375736 
3401.090030  	73.482534 
3402.526908  	73.673708 
3403.963786  	73.923584 
3405.400664  	74.104026 
3406.837542  	74.290959 
3408.274420  	74.464931 
3409.711297  	74.621047 
3411.148175  	74.783551 
3412.585053  	74.943877 
3414.021931  	75.187824 
3415.458809  	75.405042 
3416.895687  	75.483494 
3418.332565  	75.603115 
3419.769443  	75.800272 
3421.206321  	76.005047 
3422.643199  	76.227662 
3424.080077  	76.409661 
3425.516955  	76.559017 
3426.953832  	76.705490 
3428.390710  	76.828659 
3429.827588  	76.969651 
3431.264466  	77.116062 
3432.701344  	77.241725 
3434.138222  	77.402152 
3435.575100  	77.625708 
3437.011978  	77.867473 
3438.448856  	78.044215 
3439.885734  	78.184219 
3441.322612  	78.358419 
3442.759490  	78.526709 
3444.196367  	78.702828 
3445.633245  	78.915594 
3447.070123  	79.129324 
3448.507001  	79.322210 
3449.943879  	79.430064 
3451.380757  	79.490986 
3452.817635  	79.604057 
3454.254513  	79.720088 
3455.691391  	79.808486 
3457.128269  	79.895618 
3458.565147  	80.057034 
3460.002025  	80.387128 
3461.438902  	80.653370 
3462.875780  	80.698397 
3464.312658  	80.790630 
3465.749536  	80.964087 
3467.186414  	81.064022 
3468.623292  	81.158948 
3470.060170  	81.286745 
3471.497048  	81.451419 
3472.933926  	81.689252 
3474.370804  	81.916696 
3475.807682  	82.053060 
3477.244560  	82.164083 
3478.681437  	82.328587 
3480.118315  	82.450859 
3481.555193  	82.520380 
3482.992071  	82.725112 
3484.428949  	82.927732 
3485.865827  	82.940274 
3487.302705  	83.005074 
3488.739583  	83.213539 
3490.176461  	83.394627 
3491.613339  	83.524368 
3493.050217  	83.567667 
3494.487095  	83.572176 
3495.923972  	83.710500 
3497.360850  	83.881644 
3498.797728  	83.938695 
3500.234606  	84.009033 
3501.671484  	84.143142 
3503.108362  	84.213346 
3504.545240  	84.253967 
3505.982118  	84.432221 
3507.418996  	84.653748 
3508.855874  	84.733037 
3510.292752  	84.741091 
3511.729630  	84.802384 
3513.166507  	84.904014 
3514.603385  	85.069462 
3516.040263  	85.230058 
3517.477141  	85.282171 
3518.914019  	85.334732 
3520.350897  	85.426585 
3521.787775  	85.492827 
3523.224653  	85.621478 
3524.661531  	85.753181 
3526.098409  	85.788667 
3527.535287  	85.915821 
3528.972165  	86.091823 
3530.409043  	86.139786 
3531.845920  	86.205112 
3533.282798  	86.275467 
3534.719676  	86.252492 
3536.156554  	86.256265 
3537.593432  	86.305660 
3539.030310  	86.400233 
3540.467188  	86.553433 
3541.904066  	86.623698 
3543.340944  	86.657921 
3544.777822  	86.688577 
3546.214700  	86.692509 
3547.651578  	86.785933 
3549.088455  	86.905464 
3550.525333  	86.971738 
3551.962211  	87.074554 
3553.399089  	87.140462 
3554.835967  	87.128386 
3556.272845  	87.139141 
3557.709723  	87.146687 
3559.146601  	87.191281 
3560.583479  	87.282168 
3562.020357  	87.336893 
3563.457235  	87.380611 
3564.894113  	87.398122 
3566.330990  	87.378007 
3567.767868  	87.448998 
3569.204746  	87.551120 
3570.641624  	87.552590 
3572.078502  	87.573886 
3573.515380  	87.608609 
3574.952258  	87.615481 
3576.389136  	87.666444 
3577.826014  	87.733769 
3579.262892  	87.790640 
3580.699770  	87.846671 
3582.136648  	87.868420 
3583.573525  	87.904615 
3585.010403  	87.966483 
3586.447281  	87.963459 
3587.884159  	87.935625 
3589.321037  	88.038252 
3590.757915  	88.143477 
3592.194793  	88.113658 
3593.631671  	88.056093 
3595.068549  	88.097390 
3596.505427  	88.142171 
3597.942305  	88.108800 
3599.379183  	88.098879 
3600.816060  	88.167029 
3602.252938  	88.245210 
3603.689816  	88.274051 
3605.126694  	88.279757 
3606.563572  	88.300222 
3608.000450  	88.355997 
3609.437328  	88.407563 
3610.874206  	88.389375 
3612.311084  	88.363124 
3613.747962  	88.327965 
3615.184840  	88.239980 
3616.621718  	88.232184 
3618.058595  	88.330908 
3619.495473  	88.365565 
3620.932351  	88.335031 
3622.369229  	88.382274 
3623.806107  	88.447113 
3625.242985  	88.443557 
3626.679863  	88.392264 
3628.116741  	88.423699 
3629.553619  	88.564591 
3630.990497  	88.557194 
3632.427375  	88.491147 
3633.864253  	88.509178 
3635.301130  	88.497285 
3636.738008  	88.458673 
3638.174886  	88.536062 
3639.611764  	88.686334 
3641.048642  	88.729202 
3642.485520  	88.642630 
3643.922398  	88.547995 
3645.359276  	88.517450 
3646.796154  	88.521729 
3648.233032  	88.579058 
3649.669910  	88.681438 
3651.106788  	88.759226 
3652.543665  	88.769427 
3653.980543  	88.705894 
3655.417421  	88.657478 
3656.854299  	88.696973 
3658.291177  	88.759993 
3659.728055  	88.773853 
3661.164933  	88.767958 
3662.601811  	88.737609 
3664.038689  	88.715389 
3665.475567  	88.716606 
3666.912445  	88.713557 
3668.349323  	88.701452 
3669.786200  	88.710807 
3671.223078  	88.733547 
3672.659956  	88.702202 
3674.096834  	88.670267 
3675.533712  	88.720659 
3676.970590  	88.774108 
3678.407468  	88.727338 
3679.844346  	88.721923 
3681.281224  	88.728019 
3682.718102  	88.715445 
3684.154980  	88.729214 
3685.591858  	88.709943 
3687.028735  	88.644596 
3688.465613  	88.641797 
3689.902491  	88.682237 
3691.339369  	88.731547 
3692.776247  	88.794472 
3694.213125  	88.768094 
3695.650003  	88.723987 
3697.086881  	88.749033 
3698.523759  	88.751688 
3699.960637  	88.737424 
3701.397515  	88.790620 
3702.834393  	88.819970 
3704.271270  	88.811183 
3705.708148  	88.803189 
3707.145026  	88.796560 
3708.581904  	88.790981 
3710.018782  	88.762780 
3711.455660  	88.722780 
3712.892538  	88.749531 
3714.329416  	88.766826 
3715.766294  	88.766915 
3717.203172  	88.767491 
3718.640050  	88.752513 
3720.076928  	88.749545 
3721.513805  	88.779397 
3722.950683  	88.806135 
3724.387561  	88.802650 
3725.824439  	88.779351 
3727.261317  	88.794045 
3728.698195  	88.833204 
3730.135073  	88.805583 
3731.571951  	88.808494 
3733.008829  	88.824425 
3734.445707  	88.713528 
3735.882585  	88.658565 
3737.319463  	88.730366 
3738.756340  	88.764284 
3740.193218  	88.794864 
3741.630096  	88.775831 
3743.066974  	88.745848 
3744.503852  	88.899822 
3745.940730  	88.946082 
3747.377608  	88.747169 
3748.814486  	88.727319 
3750.251364  	88.820347 
3751.688242  	88.808036 
3753.125120  	88.796018 
3754.561998  	88.772558 
3755.998875  	88.716321 
3757.435753  	88.708567 
3758.872631  	88.721025 
3760.309509  	88.723529 
3761.746387  	88.730837 
3763.183265  	88.702723 
3764.620143  	88.697338 
3766.057021  	88.760362 
3767.493899  	88.811396 
3768.930777  	88.823359 
3770.367655  	88.823869 
3771.804533  	88.759163 
3773.241411  	88.699374 
3774.678288  	88.725556 
3776.115166  	88.739114 
3777.552044  	88.702313 
3778.988922  	88.734573 
3780.425800  	88.782060 
3781.862678  	88.777304 
3783.299556  	88.785789 
3784.736434  	88.780366 
3786.173312  	88.736064 
3787.610190  	88.744813 
3789.047068  	88.782824 
3790.483946  	88.776973 
3791.920823  	88.757852 
3793.357701  	88.741880 
3794.794579  	88.693416 
3796.231457  	88.688788 
3797.668335  	88.737403 
3799.105213  	88.716270 
3800.542091  	88.693728 
3801.978969  	88.757824 
3803.415847  	88.773411 
3804.852725  	88.740881 
3806.289603  	88.809715 
3807.726481  	88.857745 
3809.163358  	88.766251 
3810.600236  	88.771960 
3812.037114  	88.826465 
3813.473992  	88.766662 
3814.910870  	88.776307 
3816.347748  	88.892752 
3817.784626  	88.749788 
3819.221504  	88.620046 
3820.658382  	88.754575 
3822.095260  	88.881192 
3823.532138  	88.803521 
3824.969016  	88.769757 
3826.405893  	88.730433 
3827.842771  	88.696436 
3829.279649  	88.733584 
3830.716527  	88.723355 
3832.153405  	88.691873 
3833.590283  	88.720648 
3835.027161  	88.703790 
3836.464039  	88.637447 
3837.900917  	88.615325 
3839.337795  	88.685712 
3840.774673  	88.826692 
3842.211551  	88.901653 
3843.648428  	88.841632 
3845.085306  	88.787633 
3846.522184  	88.824864 
3847.959062  	88.816005 
3849.395940  	88.726505 
3850.832818  	88.672916 
3852.269696  	88.701694 
3853.706574  	88.764122 
3855.143452  	88.782244 
3856.580330  	88.720033 
3858.017208  	88.710378 
3859.454086  	88.758440 
3860.890963  	88.770025 
3862.327841  	88.735202 
3863.764719  	88.686651 
3865.201597  	88.648785 
3866.638475  	88.641466 
3868.075353  	88.656479 
3869.512231  	88.773141 
3870.949109  	88.912293 
3872.385987  	88.787220 
3873.822865  	88.691231 
3875.259743  	88.735203 
3876.696621  	88.703813 
3878.133498  	88.656913 
3879.570376  	88.682947 
3881.007254  	88.677696 
3882.444132  	88.689402 
3883.881010  	88.755066 
3885.317888  	88.809432 
3886.754766  	88.821324 
3888.191644  	88.770596 
3889.628522  	88.756487 
3891.065400  	88.828871 
3892.502278  	88.850342 
3893.939156  	88.782533 
3895.376033  	88.750884 
3896.812911  	88.752035 
3898.249789  	88.720128 
3899.686667  	88.651339 
3901.123545  	88.634463 
3902.560423  	88.654717 
3903.997301  	88.660798 
3905.434179  	88.711672 
3906.871057  	88.755885 
3908.307935  	88.752873 
3909.744813  	88.734844 
3911.181691  	88.696836 
3912.618568  	88.701464 
3914.055446  	88.740319 
3915.492324  	88.745534 
3916.929202  	88.791077 
3918.366080  	88.835686 
3919.802958  	88.772324 
3921.239836  	88.727241 
3922.676714  	88.725206 
3924.113592  	88.707239 
3925.550470  	88.738441 
3926.987348  	88.759041 
3928.424226  	88.751194 
3929.861103  	88.806280 
3931.297981  	88.834476 
3932.734859  	88.761647 
3934.171737  	88.715158 
3935.608615  	88.746529 
3937.045493  	88.789148 
3938.482371  	88.778948 
3939.919249  	88.756285 
3941.356127  	88.741843 
3942.793005  	88.748765 
3944.229883  	88.742306 
3945.666761  	88.739300 
3947.103638  	88.749785 
3948.540516  	88.752698 
3949.977394  	88.755787 
3951.414272  	88.780850 
3952.851150  	88.785147 
3954.288028  	88.762917 
3955.724906  	88.770832 
3957.161784  	88.730704 
3958.598662  	88.695476 
3960.035540  	88.708723 
3961.472418  	88.752965 
3962.909296  	88.762547 
3964.346173  	88.761996 
3965.783051  	88.769906 
3967.219929  	88.803026 
3968.656807  	88.815603 
3970.093685  	88.809896 
3971.530563  	88.852507 
3972.967441  	88.847065 
3974.404319  	88.774180 
3975.841197  	88.763705 
3977.278075  	88.778804 
3978.714953  	88.779349 
3980.151831  	88.790914 
3981.588708  	88.768930 
3983.025586  	88.750455 
3984.462464  	88.777970 
3985.899342  	88.798957 
3987.336220  	88.792102 
3988.773098  	88.749266 
3990.209976  	88.694688 
3991.646854  	88.674444 
3993.083732  	88.689781 
3994.520610  	88.734006 
3995.957488  	88.754754 
3997.394366  	88.738823 
3998.831244  	88.750296 
4000.268121  	88.754504 