##TITLE=No Description
##DATA TYPE=INFRARED SPECTRUM
##XUNITS=1/CM
##YUNITS=%T
399.452061  	74.709154 
400.888939  	75.365133 
402.325817  	74.219191 
403.762695  	72.445267 
405.199573  	72.682247 
406.636451  	72.593899 
408.073328  	71.664685 
409.510206  	71.733243 
410.947084  	72.060629 
412.383962  	71.415108 
413.820840  	70.354563 
415.257718  	69.393336 
416.694596  	67.859836 
418.131474  	65.990719 
419.568352  	66.529158 
421.005230  	67.054866 
422.442108  	66.021301 
423.878986  	65.054821 
425.315863  	64.873630 
426.752741  	65.426200 
428.189619  	66.339990 
429.626497  	66.721997 
431.063375  	67.312742 
432.500253  	68.685525 
433.937131  	69.603527 
435.374009  	69.854652 
436.810887  	70.154966 
438.247765  	70.775327 
439.684643  	71.301040 
441.121521  	71.815626 
442.558398  	72.403137 
443.995276  	72.036611 
445.432154  	71.535158 
446.869032  	71.908836 
448.305910  	71.902266 
449.742788  	72.022873 
451.179666  	72.978022 
452.616544  	73.436755 
454.053422  	73.272607 
455.490300  	73.138450 
456.927178  	72.893439 
458.364056  	72.802660 
459.800933  	72.716058 
461.237811  	72.676494 
462.674689  	72.766994 
464.111567  	72.523088 
465.548445  	72.208861 
466.985323  	71.718144 
468.422201  	71.161496 
469.859079  	71.756383 
471.295957  	72.868991 
472.732835  	73.041454 
474.169713  	72.447172 
475.606591  	71.847105 
477.043469  	71.314813 
478.480346  	70.780162 
479.917224  	70.172682 
481.354102  	69.096925 
482.790980  	67.516956 
484.227858  	66.676090 
485.664736  	66.848730 
487.101614  	66.809325 
488.538492  	66.771844 
489.975370  	67.378846 
491.412248  	68.300220 
492.849126  	69.487340 
494.286004  	70.489171 
495.722881  	70.869304 
497.159759  	71.269338 
498.596637  	71.858273 
500.033515  	72.424964 
501.470393  	73.013627 
502.907271  	73.470894 
504.344149  	73.746335 
505.781027  	73.726723 
507.217905  	73.724981 
508.654783  	74.111088 
510.091661  	74.235758 
511.528539  	74.291098 
512.965416  	74.738170 
514.402294  	74.736828 
515.839172  	74.331259 
517.276050  	74.329514 
518.712928  	74.574460 
520.149806  	74.760630 
521.586684  	74.766834 
523.023562  	74.652379 
524.460440  	74.679398 
525.897318  	74.711596 
527.334196  	74.689757 
528.771074  	74.768625 
530.207951  	74.817429 
531.644829  	74.760024 
533.081707  	74.647082 
534.518585  	74.567453 
535.955463  	74.558099 
537.392341  	74.621925 
538.829219  	74.900218 
540.266097  	75.133813 
541.702975  	74.967096 
543.139853  	74.792457 
544.576731  	74.898934 
546.013609  	74.968119 
547.450486  	74.793294 
548.887364  	74.559260 
550.324242  	74.509671 
551.761120  	74.556849 
553.197998  	74.572879 
554.634876  	74.583057 
556.071754  	74.468171 
557.508632  	74.343558 
558.945510  	74.322904 
560.382388  	74.110708 
561.819266  	73.799153 
563.256144  	73.681627 
564.693021  	73.661287 
566.129899  	73.682325 
567.566777  	73.665411 
569.003655  	73.497363 
570.440533  	73.334275 
571.877411  	73.185952 
573.314289  	72.962284 
574.751167  	72.787621 
576.188045  	72.739445 
577.624923  	72.702047 
579.061801  	72.608395 
580.498679  	72.539382 
581.935556  	72.487318 
583.372434  	72.414787 
584.809312  	72.392319 
586.246190  	72.350567 
587.683068  	72.305985 
589.119946  	72.338161 
590.556824  	72.238348 
591.993702  	72.076487 
593.430580  	72.084820 
594.867458  	72.048035 
596.304336  	71.962305 
597.741214  	71.953369 
599.178091  	71.876883 
600.614969  	71.817930 
602.051847  	71.827999 
603.488725  	71.778477 
604.925603  	71.753301 
606.362481  	71.760645 
607.799359  	71.789603 
609.236237  	71.875720 
610.673115  	71.861610 
612.109993  	71.785293 
613.546871  	71.753797 
614.983749  	71.720372 
616.420626  	71.672157 
617.857504  	71.623885 
619.294382  	71.567802 
620.731260  	71.561490 
622.168138  	71.560634 
623.605016  	71.522964 
625.041894  	71.529525 
626.478772  	71.526212 
627.915650  	71.440757 
629.352528  	71.354500 
630.789406  	71.367229 
632.226284  	71.418873 
633.663161  	71.393509 
635.100039  	71.385921 
636.536917  	71.462561 
637.973795  	71.598671 
639.410673  	71.652749 
640.847551  	71.683545 
642.284429  	71.718909 
643.721307  	71.809168 
645.158185  	71.917593 
646.595063  	71.998397 
648.031941  	72.113983 
649.468819  	72.219853 
650.905696  	72.300133 
652.342574  	72.403884 
653.779452  	72.540751 
655.216330  	72.688456 
656.653208  	72.838856 
658.090086  	72.969718 
659.526964  	73.063255 
660.963842  	73.139253 
662.400720  	73.288088 
663.837598  	73.476970 
665.274476  	73.565568 
666.711354  	73.661515 
668.148231  	73.865676 
669.585109  	74.085361 
671.021987  	74.198557 
672.458865  	74.317283 
673.895743  	74.509814 
675.332621  	74.760901 
676.769499  	74.961117 
678.206377  	75.065084 
679.643255  	75.163491 
681.080133  	75.346522 
682.517011  	75.542385 
683.953889  	75.679406 
685.390766  	75.813929 
686.827644  	75.992613 
688.264522  	76.213482 
689.701400  	76.407484 
691.138278  	76.580696 
692.575156  	76.769542 
694.012034  	76.942241 
695.448912  	77.083809 
696.885790  	77.298138 
698.322668  	77.500891 
699.759546  	77.666239 
701.196424  	77.815618 
702.633301  	77.968291 
704.070179  	78.195158 
705.507057  	78.430277 
706.943935  	78.622260 
708.380813  	78.797547 
709.817691  	79.004599 
711.254569  	79.223970 
712.691447  	79.363800 
714.128325  	79.516050 
715.565203  	79.791905 
717.002081  	80.003528 
718.438959  	80.075365 
719.875837  	80.191281 
721.312714  	80.444119 
722.749592  	80.697915 
724.186470  	80.877731 
725.623348  	80.994794 
727.060226  	81.163430 
728.497104  	81.419683 
729.933982  	81.652750 
731.370860  	81.809245 
732.807738  	81.948771 
734.244616  	82.085271 
735.681494  	82.202115 
737.118372  	82.358946 
738.555249  	82.578863 
739.992127  	82.768045 
741.429005  	82.934661 
742.865883  	83.145084 
744.302761  	83.299039 
745.739639  	83.402869 
747.176517  	83.603687 
748.613395  	83.834125 
750.050273  	84.011664 
751.487151  	84.197896 
752.924029  	84.375706 
754.360907  	84.530151 
755.797784  	84.690073 
757.234662  	84.839250 
758.671540  	85.005936 
760.108418  	85.188476 
761.545296  	85.345634 
762.982174  	85.517663 
764.419052  	85.715680 
765.855930  	85.916792 
767.292808  	86.122854 
768.729686  	86.316958 
770.166564  	86.522231 
771.603442  	86.697297 
773.040319  	86.772604 
774.477197  	86.893986 
775.914075  	87.104146 
777.350953  	87.235034 
778.787831  	87.345163 
780.224709  	87.511578 
781.661587  	87.650537 
783.098465  	87.819559 
784.535343  	88.016729 
785.972221  	88.131942 
787.409099  	88.242095 
788.845977  	88.401016 
790.282854  	88.522108 
791.719732  	88.563505 
793.156610  	88.576294 
794.593488  	88.656966 
796.030366  	88.744050 
797.467244  	88.716945 
798.904122  	88.632493 
800.341000  	88.488419 
801.777878  	88.238868 
803.214756  	87.922303 
804.651634  	87.421011 
806.088512  	86.542078 
807.525389  	85.105150 
808.962267  	82.783505 
810.399145  	79.081234 
811.836023  	73.620199 
813.272901  	66.995638 
814.709779  	60.898419 
816.146657  	57.609942 
817.583535  	58.948139 
819.020413  	64.644647 
820.457291  	72.337574 
821.894169  	79.118368 
823.331047  	83.700546 
824.767924  	86.349540 
826.204802  	87.870261 
827.641680  	88.866111 
829.078558  	89.531753 
830.515436  	90.032091 
831.952314  	90.447225 
833.389192  	90.773197 
834.826070  	91.067735 
836.262948  	91.296413 
837.699826  	91.471136 
839.136704  	91.629861 
840.573582  	91.715546 
842.010459  	91.814850 
843.447337  	91.972128 
844.884215  	92.088442 
846.321093  	92.197753 
847.757971  	92.308837 
849.194849  	92.385098 
850.631727  	92.469195 
852.068605  	92.544902 
853.505483  	92.626668 
854.942361  	92.728302 
856.379239  	92.771367 
857.816117  	92.785996 
859.252994  	92.836803 
860.689872  	92.918211 
862.126750  	93.013218 
863.563628  	93.047217 
865.000506  	93.029100 
866.437384  	93.043851 
867.874262  	93.059981 
869.311140  	93.065330 
870.748018  	93.089902 
872.184896  	93.103143 
873.621774  	93.124296 
875.058652  	93.176015 
876.495529  	93.197729 
877.932407  	93.167605 
879.369285  	93.142965 
880.806163  	93.132827 
882.243041  	93.080026 
883.679919  	93.025178 
885.116797  	93.032513 
886.553675  	93.032867 
887.990553  	93.014525 
889.427431  	93.010287 
890.864309  	92.938642 
892.301187  	92.827787 
893.738064  	92.783736 
895.174942  	92.749939 
896.611820  	92.659544 
898.048698  	92.535691 
899.485576  	92.412249 
900.922454  	92.302199 
902.359332  	92.172497 
903.796210  	92.029479 
905.233088  	91.895992 
906.669966  	91.719633 
908.106844  	91.489967 
909.543722  	91.211520 
910.980599  	90.868453 
912.417477  	90.523373 
913.854355  	90.157328 
915.291233  	89.685239 
916.728111  	89.143687 
918.164989  	88.557978 
919.601867  	87.975190 
921.038745  	87.469764 
922.475623  	86.958181 
923.912501  	86.389132 
925.349379  	85.720762 
926.786257  	84.832643 
928.223134  	83.727667 
929.660012  	82.349906 
931.096890  	80.664325 
932.533768  	78.797435 
933.970646  	76.691988 
935.407524  	74.422906 
936.844402  	72.061533 
938.281280  	69.176354 
939.718158  	65.565148 
941.155036  	61.096561 
942.591914  	55.589967 
944.028792  	49.630547 
945.465670  	43.638647 
946.902547  	38.015383 
948.339425  	33.795418 
949.776303  	31.443145 
951.213181  	31.685449 
952.650059  	35.127977 
954.086937  	40.988447 
955.523815  	48.452658 
956.960693  	56.795002 
958.397571  	65.063601 
959.834449  	72.352858 
961.271327  	78.075134 
962.708205  	82.174093 
964.145082  	84.972239 
965.581960  	86.892506 
967.018838  	88.229229 
968.455716  	89.204129 
969.892594  	89.943963 
971.329472  	90.524029 
972.766350  	91.015244 
974.203228  	91.376748 
975.640106  	91.630090 
977.076984  	91.856211 
978.513862  	92.044220 
979.950740  	92.225151 
981.387617  	92.400868 
982.824495  	92.553018 
984.261373  	92.746800 
985.698251  	92.954890 
987.135129  	93.148418 
988.572007  	93.337813 
990.008885  	93.446864 
991.445763  	93.512107 
992.882641  	93.601273 
994.319519  	93.682457 
995.756397  	93.770022 
997.193275  	93.824802 
998.630152  	93.831672 
1000.067030  	93.856770 
1001.503908  	93.862688 
1002.940786  	93.875112 
1004.377664  	93.916342 
1005.814542  	93.902363 
1007.251420  	93.905027 
1008.688298  	93.929873 
1010.125176  	93.880916 
1011.562054  	93.859039 
1012.998932  	93.878140 
1014.435810  	93.851175 
1015.872687  	93.816214 
1017.309565  	93.777275 
1018.746443  	93.753926 
1020.183321  	93.764669 
1021.620199  	93.731370 
1023.057077  	93.661537 
1024.493955  	93.599183 
1025.930833  	93.551910 
1027.367711  	93.519868 
1028.804589  	93.452222 
1030.241467  	93.381617 
1031.678345  	93.361413 
1033.115222  	93.337650 
1034.552100  	93.301202 
1035.988978  	93.238014 
1037.425856  	93.132999 
1038.862734  	93.054374 
1040.299612  	92.979721 
1041.736490  	92.869785 
1043.173368  	92.759164 
1044.610246  	92.639825 
1046.047124  	92.532292 
1047.484002  	92.439931 
1048.920880  	92.314390 
1050.357757  	92.184534 
1051.794635  	92.045791 
1053.231513  	91.862893 
1054.668391  	91.669875 
1056.105269  	91.473063 
1057.542147  	91.282723 
1058.979025  	91.092429 
1060.415903  	90.829212 
1061.852781  	90.528244 
1063.289659  	90.253812 
1064.726537  	89.946165 
1066.163415  	89.582461 
1067.600292  	89.195809 
1069.037170  	88.786573 
1070.474048  	88.373381 
1071.910926  	87.940031 
1073.347804  	87.444303 
1074.784682  	86.908919 
1076.221560  	86.303292 
1077.658438  	85.591190 
1079.095316  	84.844650 
1080.532194  	84.035669 
1081.969072  	83.063428 
1083.405950  	81.943332 
1084.842827  	80.726218 
1086.279705  	79.423113 
1087.716583  	77.960984 
1089.153461  	76.338005 
1090.590339  	74.652588 
1092.027217  	72.845679 
1093.464095  	70.997964 
1094.900973  	69.188645 
1096.337851  	67.233365 
1097.774729  	65.334072 
1099.211607  	63.619358 
1100.648485  	61.960928 
1102.085362  	60.644593 
1103.522240  	59.651542 
1104.959118  	58.931124 
1106.395996  	58.688452 
1107.832874  	58.660882 
1109.269752  	58.876418 
1110.706630  	59.388550 
1112.143508  	59.911985 
1113.580386  	60.583783 
1115.017264  	61.273246 
1116.454142  	61.716565 
1117.891020  	61.894419 
1119.327897  	61.406206 
1120.764775  	60.146491 
1122.201653  	58.310084 
1123.638531  	55.991513 
1125.075409  	53.855382 
1126.512287  	52.411830 
1127.949165  	51.891821 
1129.386043  	52.698638 
1130.822921  	54.516569 
1132.259799  	57.104156 
1133.696677  	60.348504 
1135.133555  	63.618198 
1136.570432  	66.596380 
1138.007310  	69.073689 
1139.444188  	70.873327 
1140.881066  	72.119653 
1142.317944  	72.805817 
1143.754822  	73.010872 
1145.191700  	72.908065 
1146.628578  	72.418404 
1148.065456  	71.589859 
1149.502334  	70.471884 
1150.939212  	69.029653 
1152.376090  	67.443934 
1153.812967  	65.691596 
1155.249845  	63.829987 
1156.686723  	62.189703 
1158.123601  	60.867946 
1159.560479  	60.210757 
1160.997357  	60.495627 
1162.434235  	61.676299 
1163.871113  	63.944165 
1165.307991  	67.131227 
1166.744869  	70.876140 
1168.181747  	74.891808 
1169.618625  	78.696145 
1171.055502  	81.976411 
1172.492380  	84.586599 
1173.929258  	86.525580 
1175.366136  	87.983875 
1176.803014  	89.072700 
1178.239892  	89.807849 
1179.676770  	90.317425 
1181.113648  	90.706690 
1182.550526  	90.949874 
1183.987404  	91.082188 
1185.424282  	91.170332 
1186.861160  	91.252725 
1188.298038  	91.369196 
1189.734915  	91.489591 
1191.171793  	91.626661 
1192.608671  	91.823214 
1194.045549  	91.997965 
1195.482427  	92.125576 
1196.919305  	92.255064 
1198.356183  	92.346454 
1199.793061  	92.395310 
1201.229939  	92.427804 
1202.666817  	92.434389 
1204.103695  	92.449294 
1205.540573  	92.469982 
1206.977450  	92.454055 
1208.414328  	92.422961 
1209.851206  	92.407255 
1211.288084  	92.394784 
1212.724962  	92.363666 
1214.161840  	92.324909 
1215.598718  	92.282358 
1217.035596  	92.217615 
1218.472474  	92.164987 
1219.909352  	92.136149 
1221.346230  	92.098202 
1222.783108  	92.059915 
1224.219985  	92.007962 
1225.656863  	91.940351 
1227.093741  	91.887270 
1228.530619  	91.827289 
1229.967497  	91.783042 
1231.404375  	91.776733 
1232.841253  	91.748560 
1234.278131  	91.701041 
1235.715009  	91.669261 
1237.151887  	91.645296 
1238.588765  	91.599529 
1240.025643  	91.493735 
1241.462520  	91.378560 
1242.899398  	91.292460 
1244.336276  	91.183391 
1245.773154  	91.066580 
1247.210032  	90.947677 
1248.646910  	90.808830 
1250.083788  	90.692502 
1251.520666  	90.570094 
1252.957544  	90.423065 
1254.394422  	90.293725 
1255.831300  	90.155009 
1257.268178  	90.000825 
1258.705055  	89.850970 
1260.141933  	89.696546 
1261.578811  	89.534066 
1263.015689  	89.328159 
1264.452567  	89.089346 
1265.889445  	88.852162 
1267.326323  	88.582439 
1268.763201  	88.285930 
1270.200079  	87.958397 
1271.636957  	87.570182 
1273.073835  	87.170088 
1274.510713  	86.755683 
1275.947590  	86.273644 
1277.384468  	85.728813 
1278.821346  	85.145791 
1280.258224  	84.532491 
1281.695102  	83.868155 
1283.131980  	83.158306 
1284.568858  	82.422480 
1286.005736  	81.664500 
1287.442614  	80.898794 
1288.879492  	80.114693 
1290.316370  	79.366345 
1291.753248  	78.672598 
1293.190125  	77.956659 
1294.627003  	77.282414 
1296.063881  	76.659492 
1297.500759  	76.054390 
1298.937637  	75.559043 
1300.374515  	75.133033 
1301.811393  	74.806962 
1303.248271  	74.624767 
1304.685149  	74.469692 
1306.122027  	74.415128 
1307.558905  	74.457039 
1308.995783  	74.534911 
1310.432660  	74.755504 
1311.869538  	75.009432 
1313.306416  	75.305299 
1314.743294  	75.777635 
1316.180172  	76.297724 
1317.617050  	76.915283 
1319.053928  	77.691188 
1320.490806  	78.505909 
1321.927684  	79.369472 
1323.364562  	80.234385 
1324.801440  	81.032211 
1326.238318  	81.771715 
1327.675195  	82.377029 
1329.112073  	82.781781 
1330.548951  	82.991226 
1331.985829  	82.952389 
1333.422707  	82.657259 
1334.859585  	82.128545 
1336.296463  	81.328917 
1337.733341  	80.402593 
1339.170219  	79.549957 
1340.607097  	79.183948 
1342.043975  	79.610739 
1343.480853  	80.557696 
1344.917730  	81.839497 
1346.354608  	83.118075 
1347.791486  	83.732935 
1349.228364  	84.271770 
1350.665242  	84.934630 
1352.102120  	85.397197 
1353.538998  	85.007345 
1354.975876  	84.356427 
1356.412754  	83.648711 
1357.849632  	82.894244 
1359.286510  	81.142361 
1360.723388  	79.104356 
1362.160265  	76.741572 
1363.597143  	74.129675 
1365.034021  	71.966767 
1366.470899  	70.364005 
1367.907777  	70.114222 
1369.344655  	70.539115 
1370.781533  	71.137622 
1372.218411  	71.358888 
1373.655289  	70.694546 
1375.092167  	68.860602 
1376.529045  	66.918642 
1377.965923  	65.319471 
1379.402800  	65.314809 
1380.839678  	67.319648 
1382.276556  	70.242381 
1383.713434  	73.469716 
1385.150312  	76.522300 
1386.587190  	78.876787 
1388.024068  	80.915185 
1389.460946  	82.035860 
1390.897824  	83.222207 
1392.334702  	83.323305 
1393.771580  	83.280179 
1395.208458  	83.227263 
1396.645335  	83.048953 
1398.082213  	82.832142 
1399.519091  	82.623077 
1400.955969  	82.385015 
1402.392847  	82.138394 
1403.829725  	81.851622 
1405.266603  	81.590387 
1406.703481  	81.409014 
1408.140359  	81.265074 
1409.577237  	81.279025 
1411.014115  	81.460074 
1412.450993  	81.720246 
1413.887871  	82.048181 
1415.324748  	82.394531 
1416.761626  	82.688107 
1418.198504  	83.054248 
1419.635382  	83.511587 
1421.072260  	83.825108 
1422.509138  	84.009961 
1423.946016  	84.229566 
1425.382894  	84.568152 
1426.819772  	84.816326 
1428.256650  	85.018349 
1429.693528  	85.265075 
1431.130406  	85.528253 
1432.567283  	85.791039 
1434.004161  	86.029521 
1435.441039  	86.228011 
1436.877917  	86.528706 
1438.314795  	86.793265 
1439.751673  	86.961613 
1441.188551  	87.135898 
1442.625429  	87.273209 
1444.062307  	87.380323 
1445.499185  	87.231885 
1446.936063  	86.897301 
1448.372941  	86.419212 
1449.809818  	85.772876 
1451.246696  	85.089047 
1452.683574  	84.336863 
1454.120452  	83.721772 
1455.557330  	83.333724 
1456.994208  	82.971272 
1458.431086  	82.480789 
1459.867964  	81.838858 
1461.304842  	81.132409 
1462.741720  	80.411467 
1464.178598  	79.706755 
1465.615476  	79.165705 
1467.052353  	78.818417 
1468.489231  	79.134672 
1469.926109  	80.169478 
1471.362987  	81.376563 
1472.799865  	83.228785 
1474.236743  	84.761493 
1475.673621  	85.618048 
1477.110499  	86.704879 
1478.547377  	87.448869 
1479.984255  	88.023049 
1481.421133  	88.708363 
1482.858011  	89.181532 
1484.294888  	89.670189 
1485.731766  	90.000613 
1487.168644  	90.258444 
1488.605522  	90.549185 
1490.042400  	90.792270 
1491.479278  	91.065466 
1492.916156  	91.353502 
1494.353034  	91.540864 
1495.789912  	91.754576 
1497.226790  	91.984754 
1498.663668  	92.153190 
1500.100546  	92.359033 
1501.537423  	92.540616 
1502.974301  	92.727680 
1504.411179  	92.837805 
1505.848057  	92.867180 
1507.284935  	92.932784 
1508.721813  	93.048092 
1510.158691  	93.102389 
1511.595569  	93.208981 
1513.032447  	93.276919 
1514.469325  	93.339427 
1515.906203  	93.416369 
1517.343081  	93.431010 
1518.779958  	93.515303 
1520.216836  	93.593317 
1521.653714  	93.625314 
1523.090592  	93.727538 
1524.527470  	93.761447 
1525.964348  	93.774948 
1527.401226  	93.834725 
1528.838104  	93.881531 
1530.274982  	93.937909 
1531.711860  	93.958722 
1533.148738  	93.957842 
1534.585616  	93.999367 
1536.022493  	94.034488 
1537.459371  	94.058781 
1538.896249  	94.124278 
1540.333127  	94.112096 
1541.770005  	94.134768 
1543.206883  	94.157113 
1544.643761  	94.144751 
1546.080639  	94.210813 
1547.517517  	94.240563 
1548.954395  	94.235859 
1550.391273  	94.250431 
1551.828151  	94.273076 
1553.265028  	94.308676 
1554.701906  	94.333604 
1556.138784  	94.333395 
1557.575662  	94.356487 
1559.012540  	94.340185 
1560.449418  	94.401645 
1561.886296  	94.442228 
1563.323174  	94.431531 
1564.760052  	94.443588 
1566.196930  	94.470278 
1567.633808  	94.460249 
1569.070686  	94.458681 
1570.507563  	94.475811 
1571.944441  	94.489556 
1573.381319  	94.495975 
1574.818197  	94.501476 
1576.255075  	94.524908 
1577.691953  	94.522755 
1579.128831  	94.488336 
1580.565709  	94.504286 
1582.002587  	94.512270 
1583.439465  	94.506350 
1584.876343  	94.514689 
1586.313221  	94.496746 
1587.750098  	94.475716 
1589.186976  	94.486312 
1590.623854  	94.483597 
1592.060732  	94.485053 
1593.497610  	94.481437 
1594.934488  	94.480299 
1596.371366  	94.500371 
1597.808244  	94.509492 
1599.245122  	94.495375 
1600.682000  	94.478444 
1602.118878  	94.458577 
1603.555756  	94.485761 
1604.992633  	94.502200 
1606.429511  	94.480099 
1607.866389  	94.461165 
1609.303267  	94.418241 
1610.740145  	94.425864 
1612.177023  	94.471148 
1613.613901  	94.446533 
1615.050779  	94.422215 
1616.487657  	94.406308 
1617.924535  	94.387325 
1619.361413  	94.361526 
1620.798291  	94.320184 
1622.235168  	94.272342 
1623.672046  	94.271772 
1625.108924  	94.263573 
1626.545802  	94.246962 
1627.982680  	94.220973 
1629.419558  	94.180896 
1630.856436  	94.159283 
1632.293314  	94.105851 
1633.730192  	94.094008 
1635.167070  	94.134539 
1636.603948  	94.081409 
1638.040826  	94.051765 
1639.477703  	94.030812 
1640.914581  	94.011492 
1642.351459  	94.041445 
1643.788337  	94.035289 
1645.225215  	93.994117 
1646.662093  	94.016443 
1648.098971  	94.024334 
1649.535849  	94.002248 
1650.972727  	94.001727 
1652.409605  	94.009624 
1653.846483  	94.089879 
1655.283361  	94.075515 
1656.720239  	93.997748 
1658.157116  	93.996169 
1659.593994  	93.998142 
1661.030872  	94.012634 
1662.467750  	94.046655 
1663.904628  	94.053793 
1665.341506  	94.054672 
1666.778384  	94.038532 
1668.215262  	94.019637 
1669.652140  	94.065087 
1671.089018  	94.090288 
1672.525896  	94.104109 
1673.962774  	94.128252 
1675.399651  	94.110130 
1676.836529  	94.155293 
1678.273407  	94.193242 
1679.710285  	94.174268 
1681.147163  	94.182945 
1682.584041  	94.200377 
1684.020919  	94.193264 
1685.457797  	94.243448 
1686.894675  	94.252770 
1688.331553  	94.230894 
1689.768431  	94.242740 
1691.205309  	94.266702 
1692.642186  	94.253764 
1694.079064  	94.253230 
1695.515942  	94.282538 
1696.952820  	94.256688 
1698.389698  	94.230347 
1699.826576  	94.269128 
1701.263454  	94.264913 
1702.700332  	94.188897 
1704.137210  	94.133980 
1705.574088  	94.069532 
1707.010966  	94.021798 
1708.447844  	93.999097 
1709.884721  	93.972567 
1711.321599  	93.970898 
1712.758477  	93.986751 
1714.195355  	94.006605 
1715.632233  	94.058059 
1717.069111  	94.113679 
1718.505989  	94.144971 
1719.942867  	94.189997 
1721.379745  	94.211813 
1722.816623  	94.214031 
1724.253501  	94.212117 
1725.690379  	94.226009 
1727.127256  	94.245828 
1728.564134  	94.238265 
1730.001012  	94.224867 
1731.437890  	94.224190 
1732.874768  	94.215487 
1734.311646  	94.199407 
1735.748524  	94.209050 
1737.185402  	94.207674 
1738.622280  	94.214599 
1740.059158  	94.210312 
1741.496036  	94.189192 
1742.932914  	94.163285 
1744.369791  	94.138956 
1745.806669  	94.126555 
1747.243547  	94.121514 
1748.680425  	94.097818 
1750.117303  	94.096046 
1751.554181  	94.097164 
1752.991059  	94.053535 
1754.427937  	94.026932 
1755.864815  	93.978850 
1757.301693  	93.927434 
1758.738571  	93.887464 
1760.175449  	93.844686 
1761.612326  	93.804627 
1763.049204  	93.754449 
1764.486082  	93.687209 
1765.922960  	93.647055 
1767.359838  	93.660666 
1768.796716  	93.692188 
1770.233594  	93.736462 
1771.670472  	93.789210 
1773.107350  	93.867277 
1774.544228  	93.922767 
1775.981106  	93.981334 
1777.417984  	94.048318 
1778.854861  	94.095265 
1780.291739  	94.132621 
1781.728617  	94.190800 
1783.165495  	94.218952 
1784.602373  	94.255243 
1786.039251  	94.291352 
1787.476129  	94.319320 
1788.913007  	94.343101 
1790.349885  	94.339254 
1791.786763  	94.310965 
1793.223641  	94.328756 
1794.660519  	94.325993 
1796.097396  	94.321358 
1797.534274  	94.323273 
1798.971152  	94.295198 
1800.408030  	94.302713 
1801.844908  	94.342744 
1803.281786  	94.378732 
1804.718664  	94.402001 
1806.155542  	94.372798 
1807.592420  	94.362553 
1809.029298  	94.369117 
1810.466176  	94.344790 
1811.903054  	94.329774 
1813.339931  	94.352855 
1814.776809  	94.366038 
1816.213687  	94.370229 
1817.650565  	94.382502 
1819.087443  	94.387796 
1820.524321  	94.379082 
1821.961199  	94.353745 
1823.398077  	94.355661 
1824.834955  	94.355618 
1826.271833  	94.360789 
1827.708711  	94.352622 
1829.145589  	94.333690 
1830.582466  	94.315838 
1832.019344  	94.319375 
1833.456222  	94.324227 
1834.893100  	94.320941 
1836.329978  	94.321067 
1837.766856  	94.346048 
1839.203734  	94.374345 
1840.640612  	94.347322 
1842.077490  	94.304436 
1843.514368  	94.326176 
1844.951246  	94.372614 
1846.388124  	94.400191 
1847.825001  	94.382960 
1849.261879  	94.342286 
1850.698757  	94.351998 
1852.135635  	94.371484 
1853.572513  	94.359554 
1855.009391  	94.368970 
1856.446269  	94.380002 
1857.883147  	94.366527 
1859.320025  	94.332269 
1860.756903  	94.319121 
1862.193781  	94.316073 
1863.630659  	94.303978 
1865.067536  	94.332218 
1866.504414  	94.344679 
1867.941292  	94.320409 
1869.378170  	94.285264 
1870.815048  	94.271266 
1872.251926  	94.242564 
1873.688804  	94.294584 
1875.125682  	94.304354 
1876.562560  	94.242799 
1877.999438  	94.235930 
1879.436316  	94.244950 
1880.873194  	94.265342 
1882.310072  	94.281086 
1883.746949  	94.287008 
1885.183827  	94.308565 
1886.620705  	94.291003 
1888.057583  	94.255714 
1889.494461  	94.292578 
1890.931339  	94.328349 
1892.368217  	94.344107 
1893.805095  	94.365855 
1895.241973  	94.335439 
1896.678851  	94.299981 
1898.115729  	94.267677 
1899.552607  	94.213156 
1900.989484  	94.211916 
1902.426362  	94.218410 
1903.863240  	94.248996 
1905.300118  	94.290598 
1906.736996  	94.286463 
1908.173874  	94.262908 
1909.610752  	94.288277 
1911.047630  	94.324992 
1912.484508  	94.329842 
1913.921386  	94.285437 
1915.358264  	94.288891 
1916.795142  	94.315505 
1918.232019  	94.302889 
1919.668897  	94.294859 
1921.105775  	94.299786 
1922.542653  	94.287211 
1923.979531  	94.279945 
1925.416409  	94.271129 
1926.853287  	94.293998 
1928.290165  	94.302390 
1929.727043  	94.284457 
1931.163921  	94.309487 
1932.600799  	94.325473 
1934.037677  	94.320799 
1935.474554  	94.334572 
1936.911432  	94.267002 
1938.348310  	94.244765 
1939.785188  	94.330155 
1941.222066  	94.306266 
1942.658944  	94.284410 
1944.095822  	94.317562 
1945.532700  	94.343513 
1946.969578  	94.378782 
1948.406456  	94.362532 
1949.843334  	94.347273 
1951.280212  	94.405094 
1952.717089  	94.400474 
1954.153967  	94.411934 
1955.590845  	94.442676 
1957.027723  	94.392291 
1958.464601  	94.387418 
1959.901479  	94.367363 
1961.338357  	94.313775 
1962.775235  	94.367840 
1964.212113  	94.453467 
1965.648991  	94.597844 
1967.085869  	94.688938 
1968.522747  	94.498403 
1969.959624  	94.400080 
1971.396502  	94.515151 
1972.833380  	94.590700 
1974.270258  	94.667129 
1975.707136  	94.595298 
1977.144014  	94.512334 
1978.580892  	94.595036 
1980.017770  	94.518655 
1981.454648  	94.379810 
1982.891526  	94.303901 
1984.328404  	94.223262 
1985.765282  	94.235097 
1987.202159  	94.240738 
1988.639037  	94.211955 
1990.075915  	94.306675 
1991.512793  	94.434930 
1992.949671  	94.476723 
1994.386549  	94.446779 
1995.823427  	94.389889 
1997.260305  	94.274458 
1998.697183  	94.302958 
2000.134061  	94.384386 
2001.570939  	94.300031 
2003.007817  	94.357912 
2004.444694  	94.728680 
2005.881572  	94.748419 
2007.318450  	94.590502 
2008.755328  	94.786631 
2010.192206  	94.764316 
2011.629084  	94.805965 
2013.065962  	95.102865 
2014.502840  	94.860337 
2015.939718  	94.573601 
2017.376596  	94.563144 
2018.813474  	94.443424 
2020.250352  	94.645295 
2021.687229  	95.013030 
2023.124107  	94.962538 
2024.560985  	94.687061 
2025.997863  	94.366448 
2027.434741  	94.364156 
2028.871619  	94.715906 
2030.308497  	94.974207 
2031.745375  	95.061282 
2033.182253  	94.843225 
2034.619131  	94.582517 
2036.056009  	94.706203 
2037.492887  	94.801920 
2038.929764  	94.688074 
2040.366642  	94.521490 
2041.803520  	94.325495 
2043.240398  	94.279199 
2044.677276  	94.363637 
2046.114154  	94.442584 
2047.551032  	94.391369 
2048.987910  	94.282473 
2050.424788  	94.446322 
2051.861666  	94.523758 
2053.298544  	94.288123 
2054.735422  	94.210100 
2056.172299  	94.223374 
2057.609177  	94.154364 
2059.046055  	94.202873 
2060.482933  	94.214070 
2061.919811  	94.211462 
2063.356689  	94.241562 
2064.793567  	94.027238 
2066.230445  	93.852948 
2067.667323  	93.941630 
2069.104201  	93.996073 
2070.541079  	93.975941 
2071.977957  	93.916257 
2073.414834  	93.887421 
2074.851712  	94.003074 
2076.288590  	94.051592 
2077.725468  	93.965093 
2079.162346  	93.883796 
2080.599224  	93.782758 
2082.036102  	93.737647 
2083.472980  	93.847524 
2084.909858  	93.960226 
2086.346736  	93.916898 
2087.783614  	93.805096 
2089.220492  	93.812822 
2090.657369  	93.869343 
2092.094247  	93.849672 
2093.531125  	93.888111 
2094.968003  	94.022646 
2096.404881  	94.029808 
2097.841759  	93.848621 
2099.278637  	93.743842 
2100.715515  	93.844008 
2102.152393  	93.891251 
2103.589271  	93.823637 
2105.026149  	93.838947 
2106.463027  	93.902471 
2107.899904  	93.948897 
2109.336782  	93.939439 
2110.773660  	93.808968 
2112.210538  	93.687191 
2113.647416  	93.626439 
2115.084294  	93.651841 
2116.521172  	93.811571 
2117.958050  	93.840455 
2119.394928  	93.678083 
2120.831806  	93.659258 
2122.268684  	93.739927 
2123.705562  	93.698732 
2125.142440  	93.672542 
2126.579317  	93.834677 
2128.016195  	93.983773 
2129.453073  	93.851696 
2130.889951  	93.697995 
2132.326829  	93.783713 
2133.763707  	93.820994 
2135.200585  	93.710218 
2136.637463  	93.617074 
2138.074341  	93.629598 
2139.511219  	93.807724 
2140.948097  	93.841403 
2142.384975  	93.659274 
2143.821852  	93.724436 
2145.258730  	93.893961 
2146.695608  	93.794188 
2148.132486  	93.646822 
2149.569364  	93.820343 
2151.006242  	94.243692 
2152.443120  	94.265558 
2153.879998  	93.868218 
2155.316876  	93.925470 
2156.753754  	94.400861 
2158.190632  	94.749548 
2159.627510  	94.823580 
2161.064387  	94.444044 
2162.501265  	93.972209 
2163.938143  	93.685762 
2165.375021  	93.769531 
2166.811899  	94.135298 
2168.248777  	94.280593 
2169.685655  	94.246122 
2171.122533  	94.196296 
2172.559411  	93.929429 
2173.996289  	93.777033 
2175.433167  	93.901967 
2176.870045  	94.022911 
2178.306922  	94.068762 
2179.743800  	93.944821 
2181.180678  	93.788429 
2182.617556  	93.703457 
2184.054434  	93.565459 
2185.491312  	93.494945 
2186.928190  	93.350622 
2188.365068  	93.338048 
2189.801946  	93.750160 
2191.238824  	93.819349 
2192.675702  	93.532235 
2194.112580  	93.586942 
2195.549457  	93.586520 
2196.986335  	93.531251 
2198.423213  	93.688999 
2199.860091  	93.679214 
2201.296969  	93.708453 
2202.733847  	93.780343 
2204.170725  	93.572177 
2205.607603  	93.572617 
2207.044481  	93.817372 
2208.481359  	93.875883 
2209.918237  	93.841122 
2211.355115  	93.771228 
2212.791992  	93.706429 
2214.228870  	93.624012 
2215.665748  	93.548243 
2217.102626  	93.724473 
2218.539504  	93.837590 
2219.976382  	93.632505 
2221.413260  	93.534823 
2222.850138  	93.618413 
2224.287016  	93.732720 
2225.723894  	93.831387 
2227.160772  	93.744862 
2228.597650  	93.568109 
2230.034527  	93.440113 
2231.471405  	93.462552 
2232.908283  	93.700036 
2234.345161  	93.749320 
2235.782039  	93.532408 
2237.218917  	93.523677 
2238.655795  	93.615898 
2240.092673  	93.552183 
2241.529551  	93.540951 
2242.966429  	93.596879 
2244.403307  	93.593280 
2245.840185  	93.581820 
2247.277062  	93.529505 
2248.713940  	93.438303 
2250.150818  	93.483034 
2251.587696  	93.525994 
2253.024574  	93.471929 
2254.461452  	93.382788 
2255.898330  	93.347190 
2257.335208  	93.333012 
2258.772086  	93.345788 
2260.208964  	93.433839 
2261.645842  	93.475298 
2263.082720  	93.418825 
2264.519597  	93.365358 
2265.956475  	93.371705 
2267.393353  	93.362086 
2268.830231  	93.325612 
2270.267109  	93.311522 
2271.703987  	93.287544 
2273.140865  	93.224621 
2274.577743  	93.197062 
2276.014621  	93.210785 
2277.451499  	93.248784 
2278.888377  	93.286876 
2280.325255  	93.231977 
2281.762132  	93.191889 
2283.199010  	93.207476 
2284.635888  	93.183200 
2286.072766  	93.128449 
2287.509644  	93.107058 
2288.946522  	93.113771 
2290.383400  	93.145930 
2291.820278  	93.150085 
2293.257156  	93.107099 
2294.694034  	93.061481 
2296.130912  	93.073028 
2297.567790  	93.036596 
2299.004667  	92.962642 
2300.441545  	92.973319 
2301.878423  	93.065223 
2303.315301  	93.085724 
2304.752179  	93.059308 
2306.189057  	93.036924 
2307.625935  	93.008243 
2309.062813  	92.996309 
2310.499691  	93.003249 
2311.936569  	92.986710 
2313.373447  	92.953348 
2314.810325  	92.949081 
2316.247202  	92.959535 
2317.684080  	92.968306 
2319.120958  	92.976335 
2320.557836  	92.973304 
2321.994714  	92.967161 
2323.431592  	92.963599 
2324.868470  	92.985910 
2326.305348  	93.026103 
2327.742226  	93.050889 
2329.179104  	93.043753 
2330.615982  	93.020906 
2332.052860  	93.009728 
2333.489737  	93.010768 
2334.926615  	93.003619 
2336.363493  	93.017688 
2337.800371  	93.051436 
2339.237249  	93.048800 
2340.674127  	93.056288 
2342.111005  	93.078944 
2343.547883  	93.058462 
2344.984761  	93.024271 
2346.421639  	93.003639 
2347.858517  	92.969926 
2349.295395  	92.959043 
2350.732273  	92.943598 
2352.169150  	92.925475 
2353.606028  	92.879042 
2355.042906  	92.856423 
2356.479784  	92.858278 
2357.916662  	92.884887 
2359.353540  	92.871772 
2360.790418  	92.837747 
2362.227296  	92.803545 
2363.664174  	92.787115 
2365.101052  	92.826621 
2366.537930  	92.856348 
2367.974808  	92.845224 
2369.411685  	92.872661 
2370.848563  	92.900933 
2372.285441  	92.829604 
2373.722319  	92.765470 
2375.159197  	92.765657 
2376.596075  	92.734217 
2378.032953  	92.700656 
2379.469831  	92.679522 
2380.906709  	92.666715 
2382.343587  	92.654912 
2383.780465  	92.638452 
2385.217343  	92.605119 
2386.654220  	92.581659 
2388.091098  	92.582861 
2389.527976  	92.551647 
2390.964854  	92.460495 
2392.401732  	92.398015 
2393.838610  	92.410205 
2395.275488  	92.426153 
2396.712366  	92.412833 
2398.149244  	92.420515 
2399.586122  	92.407249 
2401.023000  	92.303866 
2402.459878  	92.227995 
2403.896755  	92.276684 
2405.333633  	92.318212 
2406.770511  	92.291551 
2408.207389  	92.297427 
2409.644267  	92.315007 
2411.081145  	92.284822 
2412.518023  	92.268546 
2413.954901  	92.305981 
2415.391779  	92.377833 
2416.828657  	92.406496 
2418.265535  	92.329161 
2419.702413  	92.281990 
2421.139290  	92.337937 
2422.576168  	92.355479 
2424.013046  	92.361203 
2425.449924  	92.420830 
2426.886802  	92.412534 
2428.323680  	92.380310 
2429.760558  	92.440917 
2431.197436  	92.489813 
2432.634314  	92.451417 
2434.071192  	92.391724 
2435.508070  	92.391135 
2436.944948  	92.455736 
2438.381825  	92.501003 
2439.818703  	92.523949 
2441.255581  	92.548419 
2442.692459  	92.499812 
2444.129337  	92.430354 
2445.566215  	92.449649 
2447.003093  	92.496576 
2448.439971  	92.492061 
2449.876849  	92.437017 
2451.313727  	92.388575 
2452.750605  	92.429328 
2454.187483  	92.507473 
2455.624360  	92.487168 
2457.061238  	92.390308 
2458.498116  	92.339375 
2459.934994  	92.321661 
2461.371872  	92.257989 
2462.808750  	92.215353 
2464.245628  	92.238608 
2465.682506  	92.221176 
2467.119384  	92.179818 
2468.556262  	92.217016 
2469.993140  	92.255297 
2471.430018  	92.213046 
2472.866895  	92.164932 
2474.303773  	92.174769 
2475.740651  	92.196495 
2477.177529  	92.171892 
2478.614407  	92.156751 
2480.051285  	92.201261 
2481.488163  	92.211689 
2482.925041  	92.171304 
2484.361919  	92.169959 
2485.798797  	92.166837 
2487.235675  	92.137981 
2488.672553  	92.167783 
2490.109430  	92.190611 
2491.546308  	92.121580 
2492.983186  	92.076966 
2494.420064  	92.105528 
2495.856942  	92.111268 
2497.293820  	92.072081 
2498.730698  	92.006972 
2500.167576  	91.960601 
2501.604454  	91.980731 
2503.041332  	91.965713 
2504.478210  	91.879795 
2505.915088  	91.856782 
2507.351965  	91.873600 
2508.788843  	91.851417 
2510.225721  	91.857753 
2511.662599  	91.879766 
2513.099477  	91.849046 
2514.536355  	91.799009 
2515.973233  	91.758591 
2517.410111  	91.730373 
2518.846989  	91.714003 
2520.283867  	91.709950 
2521.720745  	91.740405 
2523.157623  	91.771199 
2524.594500  	91.755976 
2526.031378  	91.734557 
2527.468256  	91.742182 
2528.905134  	91.762203 
2530.342012  	91.756219 
2531.778890  	91.726278 
2533.215768  	91.731693 
2534.652646  	91.762347 
2536.089524  	91.792438 
2537.526402  	91.836049 
2538.963280  	91.827236 
2540.400158  	91.776165 
2541.837035  	91.772646 
2543.273913  	91.755339 
2544.710791  	91.711247 
2546.147669  	91.715377 
2547.584547  	91.733478 
2549.021425  	91.773165 
2550.458303  	91.828866 
2551.895181  	91.821712 
2553.332059  	91.818979 
2554.768937  	91.820378 
2556.205815  	91.736742 
2557.642693  	91.694988 
2559.079570  	91.734259 
2560.516448  	91.718914 
2561.953326  	91.693882 
2563.390204  	91.698944 
2564.827082  	91.670498 
2566.263960  	91.638184 
2567.700838  	91.587599 
2569.137716  	91.487583 
2570.574594  	91.416912 
2572.011472  	91.395553 
2573.448350  	91.406915 
2574.885228  	91.448042 
2576.322105  	91.451556 
2577.758983  	91.422950 
2579.195861  	91.425179 
2580.632739  	91.406598 
2582.069617  	91.346545 
2583.506495  	91.315938 
2584.943373  	91.308954 
2586.380251  	91.306547 
2587.817129  	91.336107 
2589.254007  	91.348078 
2590.690885  	91.322158 
2592.127763  	91.345026 
2593.564641  	91.378160 
2595.001518  	91.340823 
2596.438396  	91.327666 
2597.875274  	91.354840 
2599.312152  	91.325806 
2600.749030  	91.308993 
2602.185908  	91.340451 
2603.622786  	91.324269 
2605.059664  	91.314604 
2606.496542  	91.368699 
2607.933420  	91.373306 
2609.370298  	91.311063 
2610.807176  	91.286707 
2612.244053  	91.322514 
2613.680931  	91.360654 
2615.117809  	91.347791 
2616.554687  	91.307219 
2617.991565  	91.305767 
2619.428443  	91.334491 
2620.865321  	91.345565 
2622.302199  	91.329320 
2623.739077  	91.299121 
2625.175955  	91.282317 
2626.612833  	91.286460 
2628.049711  	91.289810 
2629.486588  	91.277847 
2630.923466  	91.241832 
2632.360344  	91.200468 
2633.797222  	91.188149 
2635.234100  	91.181116 
2636.670978  	91.139585 
2638.107856  	91.082273 
2639.544734  	91.047655 
2640.981612  	91.031740 
2642.418490  	90.985524 
2643.855368  	90.902548 
2645.292246  	90.840519 
2646.729123  	90.792754 
2648.166001  	90.706789 
2649.602879  	90.606235 
2651.039757  	90.516240 
2652.476635  	90.426097 
2653.913513  	90.374171 
2655.350391  	90.365152 
2656.787269  	90.329704 
2658.224147  	90.266959 
2659.661025  	90.233197 
2661.097903  	90.246554 
2662.534781  	90.301533 
2663.971658  	90.369759 
2665.408536  	90.424817 
2666.845414  	90.492188 
2668.282292  	90.585231 
2669.719170  	90.661057 
2671.156048  	90.711803 
2672.592926  	90.775984 
2674.029804  	90.843856 
2675.466682  	90.882322 
2676.903560  	90.895393 
2678.340438  	90.891626 
2679.777316  	90.878292 
2681.214193  	90.869076 
2682.651071  	90.856240 
2684.087949  	90.825218 
2685.524827  	90.785675 
2686.961705  	90.753541 
2688.398583  	90.720189 
2689.835461  	90.666207 
2691.272339  	90.596988 
2692.709217  	90.529360 
2694.146095  	90.465954 
2695.582973  	90.409804 
2697.019851  	90.366185 
2698.456728  	90.329992 
2699.893606  	90.295496 
2701.330484  	90.268153 
2702.767362  	90.258475 
2704.204240  	90.250974 
2705.641118  	90.225257 
2707.077996  	90.210082 
2708.514874  	90.210467 
2709.951752  	90.179556 
2711.388630  	90.133442 
2712.825508  	90.113940 
2714.262386  	90.096818 
2715.699263  	90.065481 
2717.136141  	90.042646 
2718.573019  	90.029130 
2720.009897  	90.005765 
2721.446775  	89.990198 
2722.883653  	90.015195 
2724.320531  	90.040557 
2725.757409  	90.034648 
2727.194287  	90.060267 
2728.631165  	90.119720 
2730.068043  	90.146984 
2731.504921  	90.155828 
2732.941798  	90.168335 
2734.378676  	90.153439 
2735.815554  	90.118154 
2737.252432  	90.117390 
2738.689310  	90.165828 
2740.126188  	90.206342 
2741.563066  	90.207062 
2742.999944  	90.196405 
2744.436822  	90.180870 
2745.873700  	90.166517 
2747.310578  	90.175465 
2748.747456  	90.184124 
2750.184333  	90.157878 
2751.621211  	90.106722 
2753.058089  	90.079124 
2754.494967  	90.091819 
2755.931845  	90.088907 
2757.368723  	90.053373 
2758.805601  	90.015460 
2760.242479  	89.967547 
2761.679357  	89.924638 
2763.116235  	89.902018 
2764.553113  	89.874599 
2765.989991  	89.851679 
2767.426868  	89.827560 
2768.863746  	89.782202 
2770.300624  	89.732916 
2771.737502  	89.663875 
2773.174380  	89.592013 
2774.611258  	89.577977 
2776.048136  	89.588804 
2777.485014  	89.579630 
2778.921892  	89.549067 
2780.358770  	89.484345 
2781.795648  	89.416752 
2783.232526  	89.384500 
2784.669403  	89.370604 
2786.106281  	89.351169 
2787.543159  	89.319584 
2788.980037  	89.293895 
2790.416915  	89.270904 
2791.853793  	89.225770 
2793.290671  	89.187280 
2794.727549  	89.171291 
2796.164427  	89.145594 
2797.601305  	89.098130 
2799.038183  	89.029798 
2800.475061  	88.961134 
2801.911938  	88.905349 
2803.348816  	88.835999 
2804.785694  	88.765282 
2806.222572  	88.718460 
2807.659450  	88.672807 
2809.096328  	88.618756 
2810.533206  	88.565370 
2811.970084  	88.493940 
2813.406962  	88.388177 
2814.843840  	88.294400 
2816.280718  	88.255117 
2817.717596  	88.240927 
2819.154474  	88.244307 
2820.591351  	88.231397 
2822.028229  	88.132005 
2823.465107  	88.033344 
2824.901985  	87.998031 
2826.338863  	87.927548 
2827.775741  	87.824135 
2829.212619  	87.728397 
2830.649497  	87.624886 
2832.086375  	87.539413 
2833.523253  	87.443247 
2834.960131  	87.323311 
2836.397009  	87.220144 
2837.833886  	87.103378 
2839.270764  	86.987127 
2840.707642  	86.867032 
2842.144520  	86.681464 
2843.581398  	86.499062 
2845.018276  	86.343741 
2846.455154  	86.149652 
2847.892032  	85.926415 
2849.328910  	85.683980 
2850.765788  	85.471995 
2852.202666  	85.270311 
2853.639544  	84.966256 
2855.076421  	84.667215 
2856.513299  	84.434860 
2857.950177  	84.149614 
2859.387055  	83.857578 
2860.823933  	83.591152 
2862.260811  	83.313351 
2863.697689  	83.046794 
2865.134567  	82.737403 
2866.571445  	82.418736 
2868.008323  	82.157617 
2869.445201  	81.861196 
2870.882079  	81.523035 
2872.318956  	81.196154 
2873.755834  	80.891483 
2875.192712  	80.627523 
2876.629590  	80.351776 
2878.066468  	80.082792 
2879.503346  	79.890438 
2880.940224  	79.761966 
2882.377102  	79.719557 
2883.813980  	79.744090 
2885.250858  	79.823033 
2886.687736  	79.989462 
2888.124614  	80.139369 
2889.561491  	80.269646 
2890.998369  	80.486372 
2892.435247  	80.699599 
2893.872125  	80.857213 
2895.309003  	81.030942 
2896.745881  	81.194806 
2898.182759  	81.319359 
2899.619637  	81.433114 
2901.056515  	81.534854 
2902.493393  	81.600156 
2903.930271  	81.645422 
2905.367149  	81.710074 
2906.804026  	81.737924 
2908.240904  	81.668712 
2909.677782  	81.565948 
2911.114660  	81.468576 
2912.551538  	81.344510 
2913.988416  	81.200428 
2915.425294  	81.091760 
2916.862172  	81.023602 
2918.299050  	80.916449 
2919.735928  	80.797889 
2921.172806  	80.737249 
2922.609684  	80.652454 
2924.046561  	80.531660 
2925.483439  	80.418464 
2926.920317  	80.261019 
2928.357195  	80.076982 
2929.794073  	79.894147 
2931.230951  	79.756655 
2932.667829  	79.772386 
2934.104707  	79.883031 
2935.541585  	80.026402 
2936.978463  	80.247367 
2938.415341  	80.515413 
2939.852219  	80.828375 
2941.289096  	81.183722 
2942.725974  	81.535693 
2944.162852  	81.891557 
2945.599730  	82.164915 
2947.036608  	82.245198 
2948.473486  	82.158620 
2949.910364  	81.890544 
2951.347242  	81.395556 
2952.784120  	80.700345 
2954.220998  	79.781912 
2955.657876  	78.585590 
2957.094754  	77.050763 
2958.531631  	75.123280 
2959.968509  	72.819951 
2961.405387  	70.162696 
2962.842265  	67.266168 
2964.279143  	64.257419 
2965.716021  	61.256560 
2967.152899  	58.670815 
2968.589777  	56.903756 
2970.026655  	56.317022 
2971.463533  	57.108924 
2972.900411  	58.955011 
2974.337289  	61.546820 
2975.774166  	64.511762 
2977.211044  	67.510338 
2978.647922  	70.570321 
2980.084800  	73.547381 
2981.521678  	76.273385 
2982.958556  	78.747575 
2984.395434  	80.885356 
2985.832312  	82.687820 
2987.269190  	84.176165 
2988.706068  	85.339276 
2990.142946  	86.267753 
2991.579824  	87.002765 
2993.016701  	87.593834 
2994.453579  	88.135314 
2995.890457  	88.540248 
2997.327335  	88.781520 
2998.764213  	89.042424 
3000.201091  	89.338608 
3001.637969  	89.555842 
3003.074847  	89.703276 
3004.511725  	89.814182 
3005.948603  	89.907254 
3007.385481  	90.004560 
3008.822359  	90.098772 
3010.259236  	90.178426 
3011.696114  	90.208755 
3013.132992  	90.205808 
3014.569870  	90.253814 
3016.006748  	90.341012 
3017.443626  	90.404015 
3018.880504  	90.422865 
3020.317382  	90.422990 
3021.754260  	90.471743 
3023.191138  	90.521951 
3024.628016  	90.497416 
3026.064894  	90.490552 
3027.501771  	90.514405 
3028.938649  	90.493297 
3030.375527  	90.490453 
3031.812405  	90.520583 
3033.249283  	90.532012 
3034.686161  	90.546460 
3036.123039  	90.538929 
3037.559917  	90.497504 
3038.996795  	90.472606 
3040.433673  	90.461570 
3041.870551  	90.461211 
3043.307429  	90.445923 
3044.744306  	90.374920 
3046.181184  	90.329499 
3047.618062  	90.341358 
3049.054940  	90.302335 
3050.491818  	90.238792 
3051.928696  	90.259833 
3053.365574  	90.292020 
3054.802452  	90.258011 
3056.239330  	90.226172 
3057.676208  	90.174991 
3059.113086  	90.064921 
3060.549964  	90.026832 
3061.986842  	90.058830 
3063.423719  	90.023434 
3064.860597  	89.967579 
3066.297475  	89.929175 
3067.734353  	89.864650 
3069.171231  	89.833733 
3070.608109  	89.813888 
3072.044987  	89.757667 
3073.481865  	89.750924 
3074.918743  	89.752314 
3076.355621  	89.680698 
3077.792499  	89.614541 
3079.229377  	89.566739 
3080.666254  	89.505385 
3082.103132  	89.471866 
3083.540010  	89.466675 
3084.976888  	89.470588 
3086.413766  	89.445095 
3087.850644  	89.355548 
3089.287522  	89.273457 
3090.724400  	89.225752 
3092.161278  	89.168591 
3093.598156  	89.115211 
3095.035034  	89.047391 
3096.471912  	88.975319 
3097.908789  	88.958488 
3099.345667  	88.920489 
3100.782545  	88.825064 
3102.219423  	88.766937 
3103.656301  	88.726755 
3105.093179  	88.660273 
3106.530057  	88.609664 
3107.966935  	88.555363 
3109.403813  	88.472541 
3110.840691  	88.410054 
3112.277569  	88.361631 
3113.714447  	88.265538 
3115.151324  	88.173836 
3116.588202  	88.175973 
3118.025080  	88.175388 
3119.461958  	88.085136 
3120.898836  	87.991737 
3122.335714  	87.907251 
3123.772592  	87.804630 
3125.209470  	87.722899 
3126.646348  	87.650042 
3128.083226  	87.614140 
3129.520104  	87.593478 
3130.956982  	87.461466 
3132.393859  	87.309605 
3133.830737  	87.254836 
3135.267615  	87.198548 
3136.704493  	87.133698 
3138.141371  	87.072992 
3139.578249  	86.936507 
3141.015127  	86.787666 
3142.452005  	86.706468 
3143.888883  	86.633723 
3145.325761  	86.530468 
3146.762639  	86.423293 
3148.199517  	86.320918 
3149.636394  	86.212038 
3151.073272  	86.116662 
3152.510150  	86.023737 
3153.947028  	85.907829 
3155.383906  	85.803136 
3156.820784  	85.673684 
3158.257662  	85.537393 
3159.694540  	85.498235 
3161.131418  	85.419165 
3162.568296  	85.248944 
3164.005174  	85.168522 
3165.442052  	85.070447 
3166.878929  	84.866081 
3168.315807  	84.739670 
3169.752685  	84.665777 
3171.189563  	84.526043 
3172.626441  	84.353651 
3174.063319  	84.200264 
3175.500197  	84.089878 
3176.937075  	83.988556 
3178.373953  	83.875940 
3179.810831  	83.706082 
3181.247709  	83.459730 
3182.684587  	83.315262 
3184.121464  	83.246463 
3185.558342  	83.057141 
3186.995220  	82.874419 
3188.432098  	82.779550 
3189.868976  	82.671982 
3191.305854  	82.539951 
3192.742732  	82.357206 
3194.179610  	82.187979 
3195.616488  	82.063311 
3197.053366  	81.880836 
3198.490244  	81.718548 
3199.927122  	81.578263 
3201.363999  	81.365165 
3202.800877  	81.198478 
3204.237755  	81.101434 
3205.674633  	80.986024 
3207.111511  	80.816278 
3208.548389  	80.614166 
3209.985267  	80.493086 
3211.422145  	80.344830 
3212.859023  	80.110091 
3214.295901  	80.012795 
3215.732779  	79.919283 
3217.169657  	79.679910 
3218.606534  	79.500872 
3220.043412  	79.342252 
3221.480290  	79.155909 
3222.917168  	79.046925 
3224.354046  	78.918006 
3225.790924  	78.732345 
3227.227802  	78.541162 
3228.664680  	78.332625 
3230.101558  	78.130239 
3231.538436  	77.953557 
3232.975314  	77.822978 
3234.412192  	77.663419 
3235.849069  	77.434198 
3237.285947  	77.293571 
3238.722825  	77.197362 
3240.159703  	77.005593 
3241.596581  	76.811499 
3243.033459  	76.686274 
3244.470337  	76.598356 
3245.907215  	76.437443 
3247.344093  	76.196982 
3248.780971  	76.050600 
3250.217849  	75.924483 
3251.654727  	75.740882 
3253.091604  	75.648272 
3254.528482  	75.554817 
3255.965360  	75.354874 
3257.402238  	75.188400 
3258.839116  	75.115073 
3260.275994  	75.059938 
3261.712872  	74.922998 
3263.149750  	74.746381 
3264.586628  	74.614993 
3266.023506  	74.472703 
3267.460384  	74.334577 
3268.897262  	74.221703 
3270.334139  	74.116117 
3271.771017  	74.061820 
3273.207895  	73.967414 
3274.644773  	73.804958 
3276.081651  	73.681386 
3277.518529  	73.567762 
3278.955407  	73.462621 
3280.392285  	73.385683 
3281.829163  	73.333043 
3283.266041  	73.277143 
3284.702919  	73.085811 
3286.139797  	72.902195 
3287.576674  	72.884610 
3289.013552  	72.840000 
3290.450430  	72.775193 
3291.887308  	72.707941 
3293.324186  	72.542249 
3294.761064  	72.458950 
3296.197942  	72.445834 
3297.634820  	72.398216 
3299.071698  	72.387063 
3300.508576  	72.292402 
3301.945454  	72.157404 
3303.382332  	72.113520 
3304.819210  	72.032934 
3306.256087  	71.959468 
3307.692965  	71.959662 
3309.129843  	71.980824 
3310.566721  	71.993824 
3312.003599  	71.908217 
3313.440477  	71.853919 
3314.877355  	71.887780 
3316.314233  	71.802863 
3317.751111  	71.713548 
3319.187989  	71.718849 
3320.624867  	71.712022 
3322.061745  	71.728056 
3323.498622  	71.705130 
3324.935500  	71.632485 
3326.372378  	71.609693 
3327.809256  	71.622980 
3329.246134  	71.679753 
3330.683012  	71.663471 
3332.119890  	71.596114 
3333.556768  	71.681508 
3334.993646  	71.727454 
3336.430524  	71.670347 
3337.867402  	71.716070 
3339.304280  	71.774759 
3340.741157  	71.805298 
3342.178035  	71.804106 
3343.614913  	71.778351 
3345.051791  	71.882816 
3346.488669  	71.970913 
3347.925547  	71.979112 
3349.362425  	72.050124 
3350.799303  	72.070234 
3352.236181  	72.132099 
3353.673059  	72.310142 
3355.109937  	72.397317 
3356.546815  	72.495471 
3357.983692  	72.633599 
3359.420570  	72.687028 
3360.857448  	72.764757 
3362.294326  	72.847362 
3363.731204  	72.939063 
3365.168082  	73.134828 
3366.604960  	73.313711 
3368.041838  	73.424904 
3369.478716  	73.528383 
3370.915594  	73.677189 
3372.352472  	73.870689 
3373.789350  	73.992003 
3375.226227  	74.098449 
3376.663105  	74.262807 
3378.099983  	74.392170 
3379.536861  	74.521158 
3380.973739  	74.679231 
3382.410617  	74.859460 
3383.847495  	75.082604 
3385.284373  	75.274137 
3386.721251  	75.429322 
3388.158129  	75.529625 
3389.595007  	75.589881 
3391.031885  	75.792360 
3392.468762  	76.092231 
3393.905640  	76.349936 
3395.342518  	76.531279 
3396.779396  	76.590531 
3398.216274  	76.700843 
3399.653152  	76.936349 
3401.090030  	77.116952 
3402.526908  	77.285016 
3403.963786  	77.468200 
3405.400664  	77.629248 
3406.837542  	77.799984 
3408.274420  	77.920087 
3409.711297  	78.086095 
3411.148175  	78.294829 
3412.585053  	78.367257 
3414.021931  	78.518093 
3415.458809  	78.834926 
3416.895687  	79.062947 
3418.332565  	79.217731 
3419.769443  	79.397369 
3421.206321  	79.643892 
3422.643199  	79.922220 
3424.080077  	80.064070 
3425.516955  	80.154735 
3426.953832  	80.314120 
3428.390710  	80.446118 
3429.827588  	80.560092 
3431.264466  	80.700639 
3432.701344  	80.873994 
3434.138222  	81.080909 
3435.575100  	81.255651 
3437.011978  	81.443891 
3438.448856  	81.688717 
3439.885734  	81.886837 
3441.322612  	82.008712 
3442.759490  	82.126802 
3444.196367  	82.271258 
3445.633245  	82.389172 
3447.070123  	82.507894 
3448.507001  	82.695105 
3449.943879  	82.853592 
3451.380757  	83.038162 
3452.817635  	83.323237 
3454.254513  	83.488053 
3455.691391  	83.552059 
3457.128269  	83.694699 
3458.565147  	83.866456 
3460.002025  	84.073317 
3461.438902  	84.263636 
3462.875780  	84.384651 
3464.312658  	84.573826 
3465.749536  	84.755832 
3467.186414  	84.847637 
3468.623292  	84.972161 
3470.060170  	85.106842 
3471.497048  	85.221789 
3472.933926  	85.364493 
3474.370804  	85.524010 
3475.807682  	85.687047 
3477.244560  	85.818685 
3478.681437  	85.959621 
3480.118315  	86.122595 
3481.555193  	86.207056 
3482.992071  	86.300401 
3484.428949  	86.491211 
3485.865827  	86.673446 
3487.302705  	86.805649 
3488.739583  	86.894824 
3490.176461  	87.000646 
3491.613339  	87.147883 
3493.050217  	87.259870 
3494.487095  	87.391020 
3495.923972  	87.558893 
3497.360850  	87.666787 
3498.797728  	87.766322 
3500.234606  	87.871671 
3501.671484  	87.917738 
3503.108362  	87.962625 
3504.545240  	88.104764 
3505.982118  	88.335626 
3507.418996  	88.516063 
3508.855874  	88.594270 
3510.292752  	88.634002 
3511.729630  	88.635174 
3513.166507  	88.699441 
3514.603385  	88.906847 
3516.040263  	89.080473 
3517.477141  	89.186340 
3518.914019  	89.307613 
3520.350897  	89.366644 
3521.787775  	89.384860 
3523.224653  	89.444838 
3524.661531  	89.507567 
3526.098409  	89.547189 
3527.535287  	89.621547 
3528.972165  	89.786707 
3530.409043  	89.964075 
3531.845920  	90.084088 
3533.282798  	90.167687 
3534.719676  	90.181498 
3536.156554  	90.185509 
3537.593432  	90.262463 
3539.030310  	90.326795 
3540.467188  	90.379812 
3541.904066  	90.454666 
3543.340944  	90.512049 
3544.777822  	90.559908 
3546.214700  	90.555163 
3547.651578  	90.599346 
3549.088455  	90.779662 
3550.525333  	90.867167 
3551.962211  	90.854786 
3553.399089  	90.926675 
3554.835967  	91.019630 
3556.272845  	91.090812 
3557.709723  	91.173640 
3559.146601  	91.193924 
3560.583479  	91.235985 
3562.020357  	91.335311 
3563.457235  	91.368441 
3564.894113  	91.391020 
3566.330990  	91.442818 
3567.767868  	91.492002 
3569.204746  	91.541239 
3570.641624  	91.523201 
3572.078502  	91.551597 
3573.515380  	91.676089 
3574.952258  	91.679658 
3576.389136  	91.631987 
3577.826014  	91.692878 
3579.262892  	91.751601 
3580.699770  	91.773110 
3582.136648  	91.837335 
3583.573525  	91.857083 
3585.010403  	91.845539 
3586.447281  	91.854882 
3587.884159  	91.834618 
3589.321037  	91.878217 
3590.757915  	91.983351 
3592.194793  	92.003276 
3593.631671  	92.032152 
3595.068549  	92.130390 
3596.505427  	92.156237 
3597.942305  	92.122684 
3599.379183  	92.101319 
3600.816060  	92.110457 
3602.252938  	92.148281 
3603.689816  	92.184271 
3605.126694  	92.208425 
3606.563572  	92.202913 
3608.000450  	92.195943 
3609.437328  	92.249218 
3610.874206  	92.261086 
3612.311084  	92.206509 
3613.747962  	92.224006 
3615.184840  	92.288936 
3616.621718  	92.286766 
3618.058595  	92.323263 
3619.495473  	92.403938 
3620.932351  	92.419844 
3622.369229  	92.384924 
3623.806107  	92.376727 
3625.242985  	92.399173 
3626.679863  	92.383071 
3628.116741  	92.335203 
3629.553619  	92.407399 
3630.990497  	92.518085 
3632.427375  	92.460651 
3633.864253  	92.422833 
3635.301130  	92.455878 
3636.738008  	92.499926 
3638.174886  	92.533284 
3639.611764  	92.543515 
3641.048642  	92.525661 
3642.485520  	92.510454 
3643.922398  	92.517690 
3645.359276  	92.522289 
3646.796154  	92.493091 
3648.233032  	92.462259 
3649.669910  	92.543527 
3651.106788  	92.665084 
3652.543665  	92.657510 
3653.980543  	92.598489 
3655.417421  	92.603584 
3656.854299  	92.626039 
3658.291177  	92.629190 
3659.728055  	92.645738 
3661.164933  	92.628677 
3662.601811  	92.584369 
3664.038689  	92.571827 
3665.475567  	92.612797 
3666.912445  	92.616379 
3668.349323  	92.601524 
3669.786200  	92.593431 
3671.223078  	92.617012 
3672.659956  	92.624265 
3674.096834  	92.605544 
3675.533712  	92.607422 
3676.970590  	92.673081 
3678.407468  	92.706877 
3679.844346  	92.709931 
3681.281224  	92.684357 
3682.718102  	92.684756 
3684.154980  	92.699408 
3685.591858  	92.664408 
3687.028735  	92.631778 
3688.465613  	92.672502 
3689.902491  	92.746103 
3691.339369  	92.794340 
3692.776247  	92.807638 
3694.213125  	92.760939 
3695.650003  	92.735816 
3697.086881  	92.725554 
3698.523759  	92.682174 
3699.960637  	92.690951 
3701.397515  	92.742234 
3702.834393  	92.753688 
3704.271270  	92.759150 
3705.708148  	92.759692 
3707.145026  	92.725476 
3708.581904  	92.694793 
3710.018782  	92.679650 
3711.455660  	92.684991 
3712.892538  	92.736779 
3714.329416  	92.759717 
3715.766294  	92.733013 
3717.203172  	92.738615 
3718.640050  	92.743587 
3720.076928  	92.711079 
3721.513805  	92.678998 
3722.950683  	92.648157 
3724.387561  	92.638899 
3725.824439  	92.652125 
3727.261317  	92.682360 
3728.698195  	92.700637 
3730.135073  	92.660788 
3731.571951  	92.623239 
3733.008829  	92.646379 
3734.445707  	92.663150 
3735.882585  	92.645768 
3737.319463  	92.681331 
3738.756340  	92.726094 
3740.193218  	92.732884 
3741.630096  	92.696040 
3743.066974  	92.673585 
3744.503852  	92.771503 
3745.940730  	92.814486 
3747.377608  	92.712908 
3748.814486  	92.657885 
3750.251364  	92.641368 
3751.688242  	92.726172 
3753.125120  	92.832814 
3754.561998  	92.784301 
3755.998875  	92.724779 
3757.435753  	92.747711 
3758.872631  	92.771920 
3760.309509  	92.784103 
3761.746387  	92.794795 
3763.183265  	92.751268 
3764.620143  	92.745601 
3766.057021  	92.762844 
3767.493899  	92.730531 
3768.930777  	92.715837 
3770.367655  	92.700898 
3771.804533  	92.696913 
3773.241411  	92.725784 
3774.678288  	92.754917 
3776.115166  	92.735880 
3777.552044  	92.691766 
3778.988922  	92.657093 
3780.425800  	92.664461 
3781.862678  	92.660280 
3783.299556  	92.635810 
3784.736434  	92.620773 
3786.173312  	92.627306 
3787.610190  	92.612954 
3789.047068  	92.581607 
3790.483946  	92.546166 
3791.920823  	92.559150 
3793.357701  	92.584151 
3794.794579  	92.557922 
3796.231457  	92.549845 
3797.668335  	92.572185 
3799.105213  	92.543817 
3800.542091  	92.501849 
3801.978969  	92.567755 
3803.415847  	92.617814 
3804.852725  	92.574602 
3806.289603  	92.583657 
3807.726481  	92.601933 
3809.163358  	92.553112 
3810.600236  	92.564796 
3812.037114  	92.602935 
3813.473992  	92.581598 
3814.910870  	92.561896 
3816.347748  	92.600840 
3817.784626  	92.601071 
3819.221504  	92.571294 
3820.658382  	92.565852 
3822.095260  	92.600465 
3823.532138  	92.614515 
3824.969016  	92.579792 
3826.405893  	92.525906 
3827.842771  	92.521250 
3829.279649  	92.546976 
3830.716527  	92.545671 
3832.153405  	92.525377 
3833.590283  	92.549361 
3835.027161  	92.554112 
3836.464039  	92.505209 
3837.900917  	92.495676 
3839.337795  	92.536774 
3840.774673  	92.552665 
3842.211551  	92.563603 
3843.648428  	92.567990 
3845.085306  	92.561886 
3846.522184  	92.567320 
3847.959062  	92.545912 
3849.395940  	92.496106 
3850.832818  	92.493103 
3852.269696  	92.503942 
3853.706574  	92.544479 
3855.143452  	92.693346 
3856.580330  	92.660031 
3858.017208  	92.559927 
3859.454086  	92.544647 
3860.890963  	92.603482 
3862.327841  	92.636763 
3863.764719  	92.608960 
3865.201597  	92.582876 
3866.638475  	92.611152 
3868.075353  	92.621342 
3869.512231  	92.614602 
3870.949109  	92.625130 
3872.385987  	92.577060 
3873.822865  	92.508786 
3875.259743  	92.549652 
3876.696621  	92.606431 
3878.133498  	92.580051 
3879.570376  	92.535245 
3881.007254  	92.535083 
3882.444132  	92.554937 
3883.881010  	92.548577 
3885.317888  	92.552268 
3886.754766  	92.570756 
3888.191644  	92.525386 
3889.628522  	92.479316 
3891.065400  	92.525912 
3892.502278  	92.620377 
3893.939156  	92.608435 
3895.376033  	92.567504 
3896.812911  	92.551599 
3898.249789  	92.567612 
3899.686667  	92.585911 
3901.123545  	92.575758 
3902.560423  	92.566761 
3903.997301  	92.550358 
3905.434179  	92.560697 
3906.871057  	92.636955 
3908.307935  	92.658629 
3909.744813  	92.611606 
3911.181691  	92.605906 
3912.618568  	92.622840 
3914.055446  	92.609345 
3915.492324  	92.605208 
3916.929202  	92.623125 
3918.366080  	92.616776 
3919.802958  	92.593589 
3921.239836  	92.554204 
3922.676714  	92.523267 
3924.113592  	92.550775 
3925.550470  	92.579982 
3926.987348  	92.552555 
3928.424226  	92.521351 
3929.861103  	92.533227 
3931.297981  	92.550834 
3932.734859  	92.535762 
3934.171737  	92.529866 
3935.608615  	92.546309 
3937.045493  	92.555812 
3938.482371  	92.555357 
3939.919249  	92.568074 
3941.356127  	92.577300 
3942.793005  	92.574457 
3944.229883  	92.537686 
3945.666761  	92.521690 
3947.103638  	92.531043 
3948.540516  	92.502786 
3949.977394  	92.489966 
3951.414272  	92.522586 
3952.851150  	92.518013 
3954.288028  	92.492691 
3955.724906  	92.489083 
3957.161784  	92.511283 
3958.598662  	92.536618 
3960.035540  	92.515341 
3961.472418  	92.450512 
3962.909296  	92.450205 
3964.346173  	92.487888 
3965.783051  	92.486621 
3967.219929  	92.502983 
3968.656807  	92.543870 
3970.093685  	92.548932 
3971.530563  	92.534721 
3972.967441  	92.530876 
3974.404319  	92.528773 
3975.841197  	92.513444 
3977.278075  	92.484733 
3978.714953  	92.474089 
3980.151831  	92.485153 
3981.588708  	92.474853 
3983.025586  	92.450341 
3984.462464  	92.460395 
3985.899342  	92.488467 
3987.336220  	92.487870 
3988.773098  	92.474828 
3990.209976  	92.486104 
3991.646854  	92.496834 
3993.083732  	92.471133 
3994.520610  	92.449813 
3995.957488  	92.466033 
3997.394366  	92.467508 
3998.831244  	92.453080 
4000.268121  	92.479465 