##TITLE=No Description
##DATA TYPE=INFRARED SPECTRUM
##XUNITS=1/CM
##YUNITS=%T
399.452061  	77.367018 
400.888939  	77.749661 
402.325817  	76.714492 
403.762695  	75.461941 
405.199573  	75.237495 
406.636451  	74.221783 
408.073328  	73.778648 
409.510206  	74.091363 
410.947084  	73.570649 
412.383962  	72.854950 
413.820840  	71.465654 
415.257718  	70.142958 
416.694596  	69.704569 
418.131474  	68.660216 
419.568352  	67.039158 
421.005230  	66.576733 
422.442108  	66.763227 
423.878986  	67.605799 
425.315863  	67.860072 
426.752741  	67.779572 
428.189619  	68.388962 
429.626497  	68.873137 
431.063375  	69.177683 
432.500253  	69.839086 
433.937131  	70.708672 
435.374009  	71.823033 
436.810887  	72.537243 
438.247765  	72.873524 
439.684643  	73.547954 
441.121521  	74.050283 
442.558398  	73.534494 
443.995276  	72.893089 
445.432154  	73.575290 
446.869032  	74.292791 
448.305910  	73.700857 
449.742788  	73.185212 
451.179666  	73.152501 
452.616544  	73.637316 
454.053422  	74.891972 
455.490300  	74.985842 
456.927178  	74.397744 
458.364056  	74.837245 
459.800933  	74.718807 
461.237811  	74.548833 
462.674689  	74.824190 
464.111567  	74.389913 
465.548445  	74.143048 
466.985323  	73.568695 
468.422201  	72.368368 
469.859079  	72.935782 
471.295957  	74.056123 
472.732835  	73.991403 
474.169713  	74.036852 
475.606591  	73.585529 
477.043469  	72.369662 
478.480346  	71.580711 
479.917224  	70.672453 
481.354102  	69.479699 
482.790980  	68.709909 
484.227858  	68.042030 
485.664736  	67.577411 
487.101614  	67.635047 
488.538492  	67.956175 
489.975370  	68.601691 
491.412248  	69.422657 
492.849126  	70.283257 
494.286004  	71.188828 
495.722881  	71.901665 
497.159759  	72.556866 
498.596637  	73.329304 
500.033515  	73.995325 
501.470393  	74.317655 
502.907271  	74.457890 
504.344149  	74.726047 
505.781027  	74.848357 
507.217905  	74.823279 
508.654783  	74.947439 
510.091661  	75.031184 
511.528539  	75.172380 
512.965416  	75.416768 
514.402294  	75.435421 
515.839172  	75.346418 
517.276050  	75.192819 
518.712928  	75.101715 
520.149806  	75.352258 
521.586684  	75.517769 
523.023562  	75.541715 
524.460440  	75.669070 
525.897318  	75.575054 
527.334196  	75.458138 
528.771074  	75.564278 
530.207951  	75.546755 
531.644829  	75.502022 
533.081707  	75.482033 
534.518585  	75.407522 
535.955463  	75.496201 
537.392341  	75.523311 
538.829219  	75.351381 
540.266097  	75.334127 
541.702975  	75.366955 
543.139853  	75.226719 
544.576731  	75.145667 
546.013609  	75.246971 
547.450486  	75.293569 
548.887364  	75.163151 
550.324242  	75.067431 
551.761120  	75.045129 
553.197998  	74.913377 
554.634876  	74.743805 
556.071754  	74.575186 
557.508632  	74.307459 
558.945510  	74.109476 
560.382388  	74.106352 
561.819266  	74.099739 
563.256144  	73.973266 
564.693021  	73.787556 
566.129899  	73.605865 
567.566777  	73.496907 
569.003655  	73.426493 
570.440533  	73.316849 
571.877411  	73.274831 
573.314289  	73.247525 
574.751167  	73.043303 
576.188045  	72.848966 
577.624923  	72.788410 
579.061801  	72.667986 
580.498679  	72.574787 
581.935556  	72.534261 
583.372434  	72.387106 
584.809312  	72.310654 
586.246190  	72.327344 
587.683068  	72.220593 
589.119946  	72.106349 
590.556824  	72.099450 
591.993702  	72.083468 
593.430580  	72.030951 
594.867458  	72.020756 
596.304336  	72.024795 
597.741214  	71.900563 
599.178091  	71.763244 
600.614969  	71.818196 
602.051847  	71.858247 
603.488725  	71.747460 
604.925603  	71.669960 
606.362481  	71.625046 
607.799359  	71.564621 
609.236237  	71.505194 
610.673115  	71.446368 
612.109993  	71.454033 
613.546871  	71.462345 
614.983749  	71.394544 
616.420626  	71.329834 
617.857504  	71.325149 
619.294382  	71.300919 
620.731260  	71.248983 
622.168138  	71.242646 
623.605016  	71.279404 
625.041894  	71.270651 
626.478772  	71.217249 
627.915650  	71.224073 
629.352528  	71.268668 
630.789406  	71.278284 
632.226284  	71.261693 
633.663161  	71.303873 
635.100039  	71.369821 
636.536917  	71.388644 
637.973795  	71.395206 
639.410673  	71.435372 
640.847551  	71.494015 
642.284429  	71.592124 
643.721307  	71.721691 
645.158185  	71.830301 
646.595063  	71.880024 
648.031941  	71.953291 
649.468819  	72.122349 
650.905696  	72.279634 
652.342574  	72.350332 
653.779452  	72.409912 
655.216330  	72.510490 
656.653208  	72.619564 
658.090086  	72.738428 
659.526964  	72.857152 
660.963842  	72.980254 
662.400720  	73.121206 
663.837598  	73.256247 
665.274476  	73.320826 
666.711354  	73.413262 
668.148231  	73.672012 
669.585109  	73.889264 
671.021987  	73.968514 
672.458865  	74.132603 
673.895743  	74.367790 
675.332621  	74.546664 
676.769499  	74.712290 
678.206377  	74.886566 
679.643255  	75.075860 
681.080133  	75.263606 
682.517011  	75.414838 
683.953889  	75.596958 
685.390766  	75.804229 
686.827644  	75.945904 
688.264522  	76.089733 
689.701400  	76.271883 
691.138278  	76.435317 
692.575156  	76.608989 
694.012034  	76.785342 
695.448912  	76.979981 
696.885790  	77.178449 
698.322668  	77.352876 
699.759546  	77.510418 
701.196424  	77.681144 
702.633301  	77.843441 
704.070179  	78.051004 
705.507057  	78.246697 
706.943935  	78.444236 
708.380813  	78.642157 
709.817691  	78.794737 
711.254569  	78.934676 
712.691447  	79.167318 
714.128325  	79.379297 
715.565203  	79.586964 
717.002081  	79.759881 
718.438959  	79.890167 
719.875837  	80.052340 
721.312714  	80.206185 
722.749592  	80.382987 
724.186470  	80.612468 
725.623348  	80.801685 
727.060226  	80.983481 
728.497104  	81.197366 
729.933982  	81.345275 
731.370860  	81.472250 
732.807738  	81.616330 
734.244616  	81.823435 
735.681494  	82.067972 
737.118372  	82.257998 
738.555249  	82.413946 
739.992127  	82.585908 
741.429005  	82.690693 
742.865883  	82.854390 
744.302761  	83.055859 
745.739639  	83.194072 
747.176517  	83.422544 
748.613395  	83.660777 
750.050273  	83.745239 
751.487151  	83.856090 
752.924029  	84.076434 
754.360907  	84.298526 
755.797784  	84.488263 
757.234662  	84.643748 
758.671540  	84.794925 
760.108418  	84.968065 
761.545296  	85.127456 
762.982174  	85.265045 
764.419052  	85.428539 
765.855930  	85.623730 
767.292808  	85.787166 
768.729686  	85.933758 
770.166564  	86.114172 
771.603442  	86.270049 
773.040319  	86.410046 
774.477197  	86.576575 
775.914075  	86.691988 
777.350953  	86.790933 
778.787831  	86.946509 
780.224709  	87.081031 
781.661587  	87.218377 
783.098465  	87.399230 
784.535343  	87.518485 
785.972221  	87.615853 
787.409099  	87.775756 
788.845977  	87.887173 
790.282854  	87.937722 
791.719732  	88.034638 
793.156610  	88.111049 
794.593488  	88.092587 
796.030366  	88.074592 
797.467244  	88.094640 
798.904122  	88.034979 
800.341000  	87.834329 
801.777878  	87.544542 
803.214756  	87.131978 
804.651634  	86.485995 
806.088512  	85.492306 
807.525389  	83.908630 
808.962267  	81.477628 
810.399145  	77.809799 
811.836023  	72.362075 
813.272901  	65.626126 
814.709779  	59.491614 
816.146657  	56.327490 
817.583535  	57.808495 
819.020413  	63.676163 
820.457291  	71.586405 
821.894169  	78.471118 
823.331047  	83.060651 
824.767924  	85.737455 
826.204802  	87.286971 
827.641680  	88.344080 
829.078558  	89.089443 
830.515436  	89.585015 
831.952314  	89.970882 
833.389192  	90.277339 
834.826070  	90.508380 
836.262948  	90.707899 
837.699826  	90.916927 
839.136704  	91.132967 
840.573582  	91.303172 
842.010459  	91.421808 
843.447337  	91.502948 
844.884215  	91.572802 
846.321093  	91.678159 
847.757971  	91.771100 
849.194849  	91.815900 
850.631727  	91.871433 
852.068605  	91.953469 
853.505483  	92.035989 
854.942361  	92.088995 
856.379239  	92.121733 
857.816117  	92.185226 
859.252994  	92.245561 
860.689872  	92.265829 
862.126750  	92.294944 
863.563628  	92.341336 
865.000506  	92.359572 
866.437384  	92.337258 
867.874262  	92.334805 
869.311140  	92.367067 
870.748018  	92.356397 
872.184896  	92.352638 
873.621774  	92.418078 
875.058652  	92.444321 
876.495529  	92.418516 
877.932407  	92.402894 
879.369285  	92.381742 
880.806163  	92.379668 
882.243041  	92.373446 
883.679919  	92.314750 
885.116797  	92.253636 
886.553675  	92.186618 
887.990553  	92.107823 
889.427431  	92.054159 
890.864309  	91.982590 
892.301187  	91.894651 
893.738064  	91.824062 
895.174942  	91.732526 
896.611820  	91.627127 
898.048698  	91.510023 
899.485576  	91.346395 
900.922454  	91.173460 
902.359332  	91.007841 
903.796210  	90.823996 
905.233088  	90.640258 
906.669966  	90.449444 
908.106844  	90.200493 
909.543722  	89.871585 
910.980599  	89.515066 
912.417477  	89.164314 
913.854355  	88.708743 
915.291233  	88.114811 
916.728111  	87.524453 
918.164989  	86.937681 
919.601867  	86.303043 
921.038745  	85.708368 
922.475623  	85.145895 
923.912501  	84.542589 
925.349379  	83.828818 
926.786257  	82.893346 
928.223134  	81.725872 
929.660012  	80.309516 
931.096890  	78.622056 
932.533768  	76.741886 
933.970646  	74.641880 
935.407524  	72.402352 
936.844402  	70.075875 
938.281280  	67.275657 
939.718158  	63.751541 
941.155036  	59.352568 
942.591914  	53.981091 
944.028792  	48.181386 
945.465670  	42.376250 
946.902547  	36.993699 
948.339425  	32.908675 
949.776303  	30.594133 
951.213181  	30.917727 
952.650059  	34.396932 
954.086937  	40.215606 
955.523815  	47.680727 
956.960693  	56.058998 
958.397571  	64.356602 
959.834449  	71.695383 
961.271327  	77.486499 
962.708205  	81.639847 
964.145082  	84.464151 
965.581960  	86.413910 
967.018838  	87.787892 
968.455716  	88.781384 
969.892594  	89.509551 
971.329472  	90.039503 
972.766350  	90.492455 
974.203228  	90.855908 
975.640106  	91.105100 
977.076984  	91.350112 
978.513862  	91.583584 
979.950740  	91.766530 
981.387617  	91.943810 
982.824495  	92.130954 
984.261373  	92.338352 
985.698251  	92.524858 
987.135129  	92.659469 
988.572007  	92.785272 
990.008885  	92.888303 
991.445763  	92.984131 
992.882641  	93.083044 
994.319519  	93.126848 
995.756397  	93.171068 
997.193275  	93.235046 
998.630152  	93.252306 
1000.067030  	93.258831 
1001.503908  	93.270051 
1002.940786  	93.286503 
1004.377664  	93.313867 
1005.814542  	93.297718 
1007.251420  	93.277446 
1008.688298  	93.273320 
1010.125176  	93.230318 
1011.562054  	93.194251 
1012.998932  	93.169899 
1014.435810  	93.129816 
1015.872687  	93.091191 
1017.309565  	93.025297 
1018.746443  	92.971527 
1020.183321  	92.938444 
1021.620199  	92.866627 
1023.057077  	92.829291 
1024.493955  	92.812308 
1025.930833  	92.739060 
1027.367711  	92.681957 
1028.804589  	92.625443 
1030.241467  	92.544976 
1031.678345  	92.493710 
1033.115222  	92.411797 
1034.552100  	92.312980 
1035.988978  	92.249626 
1037.425856  	92.148604 
1038.862734  	92.030836 
1040.299612  	91.935137 
1041.736490  	91.816616 
1043.173368  	91.705746 
1044.610246  	91.606597 
1046.047124  	91.466967 
1047.484002  	91.314213 
1048.920880  	91.182167 
1050.357757  	91.039191 
1051.794635  	90.869878 
1053.231513  	90.711786 
1054.668391  	90.535446 
1056.105269  	90.276259 
1057.542147  	90.002690 
1058.979025  	89.766490 
1060.415903  	89.511998 
1061.852781  	89.226991 
1063.289659  	88.901292 
1064.726537  	88.543673 
1066.163415  	88.205154 
1067.600292  	87.812869 
1069.037170  	87.329320 
1070.474048  	86.881121 
1071.910926  	86.457801 
1073.347804  	85.935755 
1074.784682  	85.323382 
1076.221560  	84.663112 
1077.658438  	83.964110 
1079.095316  	83.211025 
1080.532194  	82.351453 
1081.969072  	81.392402 
1083.405950  	80.307867 
1084.842827  	79.064295 
1086.279705  	77.756524 
1087.716583  	76.322100 
1089.153461  	74.693547 
1090.590339  	73.033851 
1092.027217  	71.299500 
1093.464095  	69.468258 
1094.900973  	67.648319 
1096.337851  	65.759290 
1097.774729  	63.946110 
1099.211607  	62.261629 
1100.648485  	60.631352 
1102.085362  	59.349583 
1103.522240  	58.362452 
1104.959118  	57.664055 
1106.395996  	57.474014 
1107.832874  	57.480840 
1109.269752  	57.705454 
1110.706630  	58.223281 
1112.143508  	58.743772 
1113.580386  	59.391165 
1115.017264  	60.062679 
1116.454142  	60.510616 
1117.891020  	60.674501 
1119.327897  	60.178861 
1120.764775  	58.986994 
1122.201653  	57.235629 
1123.638531  	54.942417 
1125.075409  	52.808796 
1126.512287  	51.400520 
1127.949165  	50.957337 
1129.386043  	51.844429 
1130.822921  	53.711036 
1132.259799  	56.322664 
1133.696677  	59.575142 
1135.133555  	62.857225 
1136.570432  	65.860489 
1138.007310  	68.336976 
1139.444188  	70.104179 
1140.881066  	71.323574 
1142.317944  	71.994565 
1143.754822  	72.172489 
1145.191700  	72.017567 
1146.628578  	71.468863 
1148.065456  	70.609144 
1149.502334  	69.499678 
1150.939212  	68.069807 
1152.376090  	66.463376 
1153.812967  	64.682268 
1155.249845  	62.820359 
1156.686723  	61.216122 
1158.123601  	59.960041 
1159.560479  	59.344268 
1160.997357  	59.635909 
1162.434235  	60.858973 
1163.871113  	63.177269 
1165.307991  	66.378403 
1166.744869  	70.174765 
1168.181747  	74.268188 
1169.618625  	78.085944 
1171.055502  	81.352450 
1172.492380  	83.979623 
1173.929258  	85.936877 
1175.366136  	87.394638 
1176.803014  	88.470800 
1178.239892  	89.190416 
1179.676770  	89.693916 
1181.113648  	90.079960 
1182.550526  	90.311637 
1183.987404  	90.432978 
1185.424282  	90.510750 
1186.861160  	90.565788 
1188.298038  	90.667280 
1189.734915  	90.825615 
1191.171793  	90.988045 
1192.608671  	91.144195 
1194.045549  	91.291631 
1195.482427  	91.431290 
1196.919305  	91.553286 
1198.356183  	91.628859 
1199.793061  	91.665750 
1201.229939  	91.680681 
1202.666817  	91.698615 
1204.103695  	91.720155 
1205.540573  	91.700721 
1206.977450  	91.672461 
1208.414328  	91.662288 
1209.851206  	91.627294 
1211.288084  	91.585274 
1212.724962  	91.550630 
1214.161840  	91.512404 
1215.598718  	91.472686 
1217.035596  	91.410649 
1218.472474  	91.367439 
1219.909352  	91.350945 
1221.346230  	91.288619 
1222.783108  	91.219374 
1224.219985  	91.175274 
1225.656863  	91.115210 
1227.093741  	91.046369 
1228.530619  	90.968686 
1229.967497  	90.919895 
1231.404375  	90.909010 
1232.841253  	90.851280 
1234.278131  	90.789662 
1235.715009  	90.764913 
1237.151887  	90.693043 
1238.588765  	90.593072 
1240.025643  	90.507209 
1241.462520  	90.420960 
1242.899398  	90.329143 
1244.336276  	90.204485 
1245.773154  	90.070985 
1247.210032  	89.938266 
1248.646910  	89.774326 
1250.083788  	89.627497 
1251.520666  	89.489571 
1252.957544  	89.333227 
1254.394422  	89.208194 
1255.831300  	89.067899 
1257.268178  	88.885623 
1258.705055  	88.726299 
1260.141933  	88.563968 
1261.578811  	88.372601 
1263.015689  	88.168021 
1264.452567  	87.929747 
1265.889445  	87.666173 
1267.326323  	87.383777 
1268.763201  	87.059914 
1270.200079  	86.700487 
1271.636957  	86.322449 
1273.073835  	85.926200 
1274.510713  	85.497571 
1275.947590  	85.010819 
1277.384468  	84.446398 
1278.821346  	83.835463 
1280.258224  	83.207906 
1281.695102  	82.537587 
1283.131980  	81.830024 
1284.568858  	81.092888 
1286.005736  	80.326731 
1287.442614  	79.559858 
1288.879492  	78.776437 
1290.316370  	78.025405 
1291.753248  	77.331236 
1293.190125  	76.621434 
1294.627003  	75.958985 
1296.063881  	75.350105 
1297.500759  	74.764686 
1298.937637  	74.283391 
1300.374515  	73.851556 
1301.811393  	73.513999 
1303.248271  	73.334882 
1304.685149  	73.205083 
1306.122027  	73.187885 
1307.558905  	73.254033 
1308.995783  	73.329087 
1310.432660  	73.523416 
1311.869538  	73.760768 
1313.306416  	74.067727 
1314.743294  	74.545139 
1316.180172  	75.065118 
1317.617050  	75.683586 
1319.053928  	76.432221 
1320.490806  	77.227893 
1321.927684  	78.103994 
1323.364562  	78.981672 
1324.801440  	79.794482 
1326.238318  	80.585330 
1327.675195  	81.176684 
1329.112073  	81.566069 
1330.548951  	81.761268 
1331.985829  	81.688177 
1333.422707  	81.375665 
1334.859585  	80.836726 
1336.296463  	80.020702 
1337.733341  	79.098800 
1339.170219  	78.262915 
1340.607097  	77.913796 
1342.043975  	78.375614 
1343.480853  	79.378676 
1344.917730  	80.698199 
1346.354608  	81.981367 
1347.791486  	82.585992 
1349.228364  	83.102762 
1350.665242  	83.733383 
1352.102120  	84.162169 
1353.538998  	83.779856 
1354.975876  	83.062522 
1356.412754  	82.316567 
1357.849632  	81.512195 
1359.286510  	79.752417 
1360.723388  	77.695029 
1362.160265  	75.304410 
1363.597143  	72.676042 
1365.034021  	70.548562 
1366.470899  	69.036394 
1367.907777  	68.856940 
1369.344655  	69.347533 
1370.781533  	69.986432 
1372.218411  	70.215548 
1373.655289  	69.523062 
1375.092167  	67.673469 
1376.529045  	65.757865 
1377.965923  	64.221638 
1379.402800  	64.326242 
1380.839678  	66.443649 
1382.276556  	69.411509 
1383.713434  	72.635267 
1385.150312  	75.689105 
1386.587190  	78.013839 
1388.024068  	79.991666 
1389.460946  	81.119222 
1390.897824  	82.289469 
1392.334702  	82.370085 
1393.771580  	82.308040 
1395.208458  	82.200387 
1396.645335  	82.019950 
1398.082213  	81.797596 
1399.519091  	81.560290 
1400.955969  	81.302078 
1402.392847  	81.069385 
1403.829725  	80.766139 
1405.266603  	80.480582 
1406.703481  	80.290122 
1408.140359  	80.151337 
1409.577237  	80.214807 
1411.014115  	80.438999 
1412.450993  	80.695444 
1413.887871  	81.008520 
1415.324748  	81.329163 
1416.761626  	81.578499 
1418.198504  	81.869292 
1419.635382  	82.251777 
1421.072260  	82.642065 
1422.509138  	82.907809 
1423.946016  	83.089864 
1425.382894  	83.372422 
1426.819772  	83.616922 
1428.256650  	83.808813 
1429.693528  	84.067516 
1431.130406  	84.334800 
1432.567283  	84.582852 
1434.004161  	84.821266 
1435.441039  	85.024202 
1436.877917  	85.278227 
1438.314795  	85.540920 
1439.751673  	85.727323 
1441.188551  	85.910382 
1442.625429  	86.038206 
1444.062307  	86.132758 
1445.499185  	85.957735 
1446.936063  	85.607821 
1448.372941  	85.142384 
1449.809818  	84.548649 
1451.246696  	83.895926 
1452.683574  	83.157714 
1454.120452  	82.536578 
1455.557330  	82.102801 
1456.994208  	81.715334 
1458.431086  	81.256539 
1459.867964  	80.609055 
1461.304842  	79.901798 
1462.741720  	79.202386 
1464.178598  	78.484400 
1465.615476  	77.930820 
1467.052353  	77.668237 
1468.489231  	78.056470 
1469.926109  	79.087614 
1471.362987  	80.314185 
1472.799865  	82.213343 
1474.236743  	83.728721 
1475.673621  	84.553410 
1477.110499  	85.564889 
1478.547377  	86.281683 
1479.984255  	86.897685 
1481.421133  	87.600064 
1482.858011  	88.116307 
1484.294888  	88.664676 
1485.731766  	88.992363 
1487.168644  	89.261497 
1488.605522  	89.563302 
1490.042400  	89.758068 
1491.479278  	90.037323 
1492.916156  	90.353831 
1494.353034  	90.534996 
1495.789912  	90.750345 
1497.226790  	90.977514 
1498.663668  	91.140585 
1500.100546  	91.353603 
1501.537423  	91.528677 
1502.974301  	91.700160 
1504.411179  	91.800947 
1505.848057  	91.835041 
1507.284935  	91.888405 
1508.721813  	91.919260 
1510.158691  	91.939512 
1511.595569  	92.065078 
1513.032447  	92.181871 
1514.469325  	92.240349 
1515.906203  	92.316925 
1517.343081  	92.324359 
1518.779958  	92.392331 
1520.216836  	92.448083 
1521.653714  	92.427553 
1523.090592  	92.538012 
1524.527470  	92.612278 
1525.964348  	92.603505 
1527.401226  	92.624112 
1528.838104  	92.664286 
1530.274982  	92.733166 
1531.711860  	92.762172 
1533.148738  	92.775546 
1534.585616  	92.858455 
1536.022493  	92.908951 
1537.459371  	92.950521 
1538.896249  	92.995571 
1540.333127  	92.933986 
1541.770005  	92.905796 
1543.206883  	92.936415 
1544.643761  	92.936958 
1546.080639  	92.997563 
1547.517517  	93.037457 
1548.954395  	93.049600 
1550.391273  	93.078539 
1551.828151  	93.085038 
1553.265028  	93.102079 
1554.701906  	93.134054 
1556.138784  	93.145844 
1557.575662  	93.177837 
1559.012540  	93.130047 
1560.449418  	93.137682 
1561.886296  	93.191894 
1563.323174  	93.179439 
1564.760052  	93.173059 
1566.196930  	93.220976 
1567.633808  	93.242028 
1569.070686  	93.278426 
1570.507563  	93.332251 
1571.944441  	93.317328 
1573.381319  	93.310302 
1574.818197  	93.314295 
1576.255075  	93.312996 
1577.691953  	93.252179 
1579.128831  	93.229143 
1580.565709  	93.285183 
1582.002587  	93.294508 
1583.439465  	93.246715 
1584.876343  	93.249910 
1586.313221  	93.255959 
1587.750098  	93.272590 
1589.186976  	93.295478 
1590.623854  	93.262209 
1592.060732  	93.235257 
1593.497610  	93.210107 
1594.934488  	93.160192 
1596.371366  	93.177635 
1597.808244  	93.224388 
1599.245122  	93.228334 
1600.682000  	93.220621 
1602.118878  	93.202575 
1603.555756  	93.174540 
1604.992633  	93.114087 
1606.429511  	93.094356 
1607.866389  	93.156583 
1609.303267  	93.154055 
1610.740145  	93.121568 
1612.177023  	93.133695 
1613.613901  	93.096297 
1615.050779  	93.076914 
1616.487657  	93.061741 
1617.924535  	93.008459 
1619.361413  	92.994510 
1620.798291  	92.990173 
1622.235168  	92.956372 
1623.672046  	92.918888 
1625.108924  	92.926410 
1626.545802  	92.924970 
1627.982680  	92.926505 
1629.419558  	92.918676 
1630.856436  	92.896206 
1632.293314  	92.836735 
1633.730192  	92.796661 
1635.167070  	92.756325 
1636.603948  	92.685638 
1638.040826  	92.722654 
1639.477703  	92.751667 
1640.914581  	92.719966 
1642.351459  	92.703921 
1643.788337  	92.718444 
1645.225215  	92.695912 
1646.662093  	92.664579 
1648.098971  	92.678726 
1649.535849  	92.682164 
1650.972727  	92.666995 
1652.409605  	92.611268 
1653.846483  	92.545739 
1655.283361  	92.588303 
1656.720239  	92.600172 
1658.157116  	92.599855 
1659.593994  	92.604703 
1661.030872  	92.645613 
1662.467750  	92.668490 
1663.904628  	92.685439 
1665.341506  	92.717795 
1666.778384  	92.687855 
1668.215262  	92.637229 
1669.652140  	92.658313 
1671.089018  	92.669136 
1672.525896  	92.682827 
1673.962774  	92.730681 
1675.399651  	92.775651 
1676.836529  	92.815493 
1678.273407  	92.849406 
1679.710285  	92.861854 
1681.147163  	92.879358 
1682.584041  	92.884498 
1684.020919  	92.883388 
1685.457797  	92.900280 
1686.894675  	92.885700 
1688.331553  	92.823978 
1689.768431  	92.808417 
1691.205309  	92.856190 
1692.642186  	92.889371 
1694.079064  	92.897403 
1695.515942  	92.919037 
1696.952820  	92.851294 
1698.389698  	92.784306 
1699.826576  	92.762121 
1701.263454  	92.723551 
1702.700332  	92.683919 
1704.137210  	92.654500 
1705.574088  	92.592880 
1707.010966  	92.525068 
1708.447844  	92.493185 
1709.884721  	92.487043 
1711.321599  	92.521445 
1712.758477  	92.590847 
1714.195355  	92.604872 
1715.632233  	92.598672 
1717.069111  	92.593850 
1718.505989  	92.583589 
1719.942867  	92.630969 
1721.379745  	92.686047 
1722.816623  	92.747651 
1724.253501  	92.835805 
1725.690379  	92.902966 
1727.127256  	92.934749 
1728.564134  	92.901078 
1730.001012  	92.847405 
1731.437890  	92.819276 
1732.874768  	92.801521 
1734.311646  	92.798365 
1735.748524  	92.815799 
1737.185402  	92.778339 
1738.622280  	92.741312 
1740.059158  	92.709883 
1741.496036  	92.682427 
1742.932914  	92.680311 
1744.369791  	92.657670 
1745.806669  	92.652037 
1747.243547  	92.647543 
1748.680425  	92.610048 
1750.117303  	92.565707 
1751.554181  	92.519195 
1752.991059  	92.474733 
1754.427937  	92.450637 
1755.864815  	92.430495 
1757.301693  	92.403159 
1758.738571  	92.390690 
1760.175449  	92.359721 
1761.612326  	92.293183 
1763.049204  	92.216385 
1764.486082  	92.177359 
1765.922960  	92.166086 
1767.359838  	92.168848 
1768.796716  	92.179095 
1770.233594  	92.213603 
1771.670472  	92.248132 
1773.107350  	92.333792 
1774.544228  	92.407079 
1775.981106  	92.454573 
1777.417984  	92.539977 
1778.854861  	92.597196 
1780.291739  	92.607283 
1781.728617  	92.644812 
1783.165495  	92.680032 
1784.602373  	92.705091 
1786.039251  	92.718854 
1787.476129  	92.760054 
1788.913007  	92.790485 
1790.349885  	92.730905 
1791.786763  	92.690901 
1793.223641  	92.703239 
1794.660519  	92.675092 
1796.097396  	92.715286 
1797.534274  	92.774082 
1798.971152  	92.745637 
1800.408030  	92.766344 
1801.844908  	92.792192 
1803.281786  	92.743858 
1804.718664  	92.759531 
1806.155542  	92.791410 
1807.592420  	92.780661 
1809.029298  	92.787324 
1810.466176  	92.799324 
1811.903054  	92.782737 
1813.339931  	92.759852 
1814.776809  	92.754834 
1816.213687  	92.758096 
1817.650565  	92.742058 
1819.087443  	92.770536 
1820.524321  	92.812156 
1821.961199  	92.801956 
1823.398077  	92.789725 
1824.834955  	92.759266 
1826.271833  	92.738900 
1827.708711  	92.760960 
1829.145589  	92.759508 
1830.582466  	92.755580 
1832.019344  	92.791790 
1833.456222  	92.797911 
1834.893100  	92.767909 
1836.329978  	92.742006 
1837.766856  	92.705233 
1839.203734  	92.705615 
1840.640612  	92.685208 
1842.077490  	92.675625 
1843.514368  	92.678113 
1844.951246  	92.671025 
1846.388124  	92.679165 
1847.825001  	92.690059 
1849.261879  	92.675358 
1850.698757  	92.689956 
1852.135635  	92.738108 
1853.572513  	92.724484 
1855.009391  	92.705065 
1856.446269  	92.682375 
1857.883147  	92.678127 
1859.320025  	92.708595 
1860.756903  	92.705152 
1862.193781  	92.696822 
1863.630659  	92.695661 
1865.067536  	92.664867 
1866.504414  	92.646076 
1867.941292  	92.640863 
1869.378170  	92.604351 
1870.815048  	92.586910 
1872.251926  	92.601332 
1873.688804  	92.683564 
1875.125682  	92.725415 
1876.562560  	92.687434 
1877.999438  	92.659930 
1879.436316  	92.650206 
1880.873194  	92.613849 
1882.310072  	92.574089 
1883.746949  	92.582649 
1885.183827  	92.629622 
1886.620705  	92.616281 
1888.057583  	92.594799 
1889.494461  	92.596782 
1890.931339  	92.529882 
1892.368217  	92.454975 
1893.805095  	92.492394 
1895.241973  	92.516221 
1896.678851  	92.526701 
1898.115729  	92.538909 
1899.552607  	92.549322 
1900.989484  	92.511597 
1902.426362  	92.447035 
1903.863240  	92.359010 
1905.300118  	92.356639 
1906.736996  	92.386758 
1908.173874  	92.421927 
1909.610752  	92.452984 
1911.047630  	92.484946 
1912.484508  	92.576357 
1913.921386  	92.622655 
1915.358264  	92.604758 
1916.795142  	92.612961 
1918.232019  	92.544301 
1919.668897  	92.451124 
1921.105775  	92.482332 
1922.542653  	92.498511 
1923.979531  	92.442910 
1925.416409  	92.457240 
1926.853287  	92.496230 
1928.290165  	92.440471 
1929.727043  	92.429349 
1931.163921  	92.421581 
1932.600799  	92.375002 
1934.037677  	92.387876 
1935.474554  	92.439169 
1936.911432  	92.401297 
1938.348310  	92.311802 
1939.785188  	92.322973 
1941.222066  	92.444958 
1942.658944  	92.531876 
1944.095822  	92.496927 
1945.532700  	92.454022 
1946.969578  	92.479061 
1948.406456  	92.479672 
1949.843334  	92.456333 
1951.280212  	92.475257 
1952.717089  	92.481497 
1954.153967  	92.425502 
1955.590845  	92.398654 
1957.027723  	92.441486 
1958.464601  	92.567687 
1959.901479  	92.665340 
1961.338357  	92.679060 
1962.775235  	92.621181 
1964.212113  	92.489237 
1965.648991  	92.378008 
1967.085869  	92.393110 
1968.522747  	92.441103 
1969.959624  	92.378815 
1971.396502  	92.284585 
1972.833380  	92.355892 
1974.270258  	92.458665 
1975.707136  	92.362504 
1977.144014  	92.329966 
1978.580892  	92.519259 
1980.017770  	92.595294 
1981.454648  	92.494471 
1982.891526  	92.397633 
1984.328404  	92.448687 
1985.765282  	92.582602 
1987.202159  	92.569152 
1988.639037  	92.481034 
1990.075915  	92.446981 
1991.512793  	92.393151 
1992.949671  	92.329482 
1994.386549  	92.304820 
1995.823427  	92.290741 
1997.260305  	92.412767 
1998.697183  	92.691569 
2000.134061  	92.956357 
2001.570939  	92.954329 
2003.007817  	92.649358 
2004.444694  	92.515235 
2005.881572  	92.608276 
2007.318450  	92.589517 
2008.755328  	92.589698 
2010.192206  	92.677448 
2011.629084  	92.754038 
2013.065962  	92.823064 
2014.502840  	92.591368 
2015.939718  	92.215757 
2017.376596  	92.201255 
2018.813474  	92.367650 
2020.250352  	92.473210 
2021.687229  	92.713346 
2023.124107  	92.749576 
2024.560985  	92.355167 
2025.997863  	92.191978 
2027.434741  	92.492519 
2028.871619  	92.684703 
2030.308497  	92.710871 
2031.745375  	92.817989 
2033.182253  	92.806748 
2034.619131  	92.792459 
2036.056009  	92.981324 
2037.492887  	92.963564 
2038.929764  	92.673036 
2040.366642  	92.487825 
2041.803520  	92.612223 
2043.240398  	92.850662 
2044.677276  	92.860234 
2046.114154  	92.724757 
2047.551032  	92.676620 
2048.987910  	92.519895 
2050.424788  	92.310378 
2051.861666  	92.292327 
2053.298544  	92.345977 
2054.735422  	92.358314 
2056.172299  	92.375780 
2057.609177  	92.407669 
2059.046055  	92.434222 
2060.482933  	92.349058 
2061.919811  	92.217126 
2063.356689  	92.267402 
2064.793567  	92.367766 
2066.230445  	92.323280 
2067.667323  	92.338766 
2069.104201  	92.421254 
2070.541079  	92.381424 
2071.977957  	92.309091 
2073.414834  	92.222077 
2074.851712  	92.112177 
2076.288590  	92.155336 
2077.725468  	92.212008 
2079.162346  	92.161206 
2080.599224  	92.203636 
2082.036102  	92.254419 
2083.472980  	92.225492 
2084.909858  	92.247501 
2086.346736  	92.181837 
2087.783614  	92.045065 
2089.220492  	92.067671 
2090.657369  	92.123677 
2092.094247  	92.142054 
2093.531125  	92.170862 
2094.968003  	92.105257 
2096.404881  	92.092659 
2097.841759  	92.198330 
2099.278637  	92.149203 
2100.715515  	92.037614 
2102.152393  	92.087389 
2103.589271  	92.157704 
2105.026149  	92.133632 
2106.463027  	92.109490 
2107.899904  	92.157292 
2109.336782  	92.222852 
2110.773660  	92.237261 
2112.210538  	92.196890 
2113.647416  	92.060749 
2115.084294  	91.909961 
2116.521172  	91.942124 
2117.958050  	92.068244 
2119.394928  	92.084985 
2120.831806  	92.046308 
2122.268684  	92.022824 
2123.705562  	92.000394 
2125.142440  	92.052634 
2126.579317  	92.173418 
2128.016195  	92.197516 
2129.453073  	92.141417 
2130.889951  	92.181176 
2132.326829  	92.234602 
2133.763707  	92.182754 
2135.200585  	92.204055 
2136.637463  	92.297725 
2138.074341  	92.307319 
2139.511219  	92.300508 
2140.948097  	92.258071 
2142.384975  	92.186377 
2143.821852  	92.252854 
2145.258730  	92.334496 
2146.695608  	92.254302 
2148.132486  	92.091321 
2149.569364  	92.011400 
2151.006242  	92.179215 
2152.443120  	92.358239 
2153.879998  	92.264802 
2155.316876  	92.283533 
2156.753754  	92.494878 
2158.190632  	92.520811 
2159.627510  	92.597554 
2161.064387  	92.615146 
2162.501265  	92.339176 
2163.938143  	92.307232 
2165.375021  	92.423904 
2166.811899  	92.174680 
2168.248777  	92.063653 
2169.685655  	92.442438 
2171.122533  	92.650509 
2172.559411  	92.488621 
2173.996289  	92.437118 
2175.433167  	92.485379 
2176.870045  	92.302057 
2178.306922  	91.974014 
2179.743800  	91.832538 
2181.180678  	91.948059 
2182.617556  	92.138228 
2184.054434  	92.417902 
2185.491312  	92.620931 
2186.928190  	92.494893 
2188.365068  	92.327605 
2189.801946  	92.287662 
2191.238824  	92.166687 
2192.675702  	92.180985 
2194.112580  	92.329917 
2195.549457  	92.305436 
2196.986335  	92.282915 
2198.423213  	92.208504 
2199.860091  	91.953977 
2201.296969  	92.047018 
2202.733847  	92.461272 
2204.170725  	92.532798 
2205.607603  	92.450636 
2207.044481  	92.599941 
2208.481359  	92.624591 
2209.918237  	92.378130 
2211.355115  	92.197846 
2212.791992  	92.168617 
2214.228870  	92.246345 
2215.665748  	92.427068 
2217.102626  	92.457698 
2218.539504  	92.288650 
2219.976382  	92.200338 
2221.413260  	92.218391 
2222.850138  	92.277715 
2224.287016  	92.352121 
2225.723894  	92.330018 
2227.160772  	92.270158 
2228.597650  	92.274943 
2230.034527  	92.269448 
2231.471405  	92.206680 
2232.908283  	92.151124 
2234.345161  	92.184843 
2235.782039  	92.200552 
2237.218917  	92.063652 
2238.655795  	91.937394 
2240.092673  	91.979343 
2241.529551  	92.153315 
2242.966429  	92.243682 
2244.403307  	92.057766 
2245.840185  	91.910096 
2247.277062  	92.059002 
2248.713940  	92.181142 
2250.150818  	92.153871 
2251.587696  	92.091191 
2253.024574  	91.990131 
2254.461452  	91.956991 
2255.898330  	92.001125 
2257.335208  	92.033742 
2258.772086  	92.073465 
2260.208964  	92.089494 
2261.645842  	92.074109 
2263.082720  	92.013060 
2264.519597  	91.938030 
2265.956475  	91.986729 
2267.393353  	92.019686 
2268.830231  	91.984147 
2270.267109  	92.049941 
2271.703987  	92.008624 
2273.140865  	91.847176 
2274.577743  	91.866803 
2276.014621  	91.884147 
2277.451499  	91.803838 
2278.888377  	91.814140 
2280.325255  	91.785412 
2281.762132  	91.711013 
2283.199010  	91.722883 
2284.635888  	91.687874 
2286.072766  	91.635858 
2287.509644  	91.666310 
2288.946522  	91.615911 
2290.383400  	91.519798 
2291.820278  	91.588967 
2293.257156  	91.710984 
2294.694034  	91.709303 
2296.130912  	91.664036 
2297.567790  	91.630888 
2299.004667  	91.566843 
2300.441545  	91.517435 
2301.878423  	91.514104 
2303.315301  	91.468443 
2304.752179  	91.425771 
2306.189057  	91.473908 
2307.625935  	91.523037 
2309.062813  	91.501416 
2310.499691  	91.468952 
2311.936569  	91.427954 
2313.373447  	91.391750 
2314.810325  	91.439144 
2316.247202  	91.502044 
2317.684080  	91.486228 
2319.120958  	91.452231 
2320.557836  	91.437508 
2321.994714  	91.423509 
2323.431592  	91.412994 
2324.868470  	91.405054 
2326.305348  	91.430591 
2327.742226  	91.448859 
2329.179104  	91.390511 
2330.615982  	91.362047 
2332.052860  	91.392839 
2333.489737  	91.371837 
2334.926615  	91.374501 
2336.363493  	91.432623 
2337.800371  	91.452127 
2339.237249  	91.467787 
2340.674127  	91.483088 
2342.111005  	91.447614 
2343.547883  	91.426441 
2344.984761  	91.470514 
2346.421639  	91.544226 
2347.858517  	91.568360 
2349.295395  	91.545434 
2350.732273  	91.537563 
2352.169150  	91.546958 
2353.606028  	91.557301 
2355.042906  	91.608025 
2356.479784  	91.619740 
2357.916662  	91.548553 
2359.353540  	91.510782 
2360.790418  	91.499056 
2362.227296  	91.457654 
2363.664174  	91.383040 
2365.101052  	91.334805 
2366.537930  	91.370720 
2367.974808  	91.362681 
2369.411685  	91.270083 
2370.848563  	91.244698 
2372.285441  	91.248923 
2373.722319  	91.161520 
2375.159197  	91.065735 
2376.596075  	91.057964 
2378.032953  	91.066618 
2379.469831  	91.051295 
2380.906709  	91.075046 
2382.343587  	91.118303 
2383.780465  	91.136077 
2385.217343  	91.147183 
2386.654220  	91.140191 
2388.091098  	91.119050 
2389.527976  	91.108939 
2390.964854  	91.100904 
2392.401732  	91.113466 
2393.838610  	91.131141 
2395.275488  	91.102044 
2396.712366  	91.078850 
2398.149244  	91.068378 
2399.586122  	91.015857 
2401.023000  	90.976303 
2402.459878  	90.974374 
2403.896755  	90.982908 
2405.333633  	90.986305 
2406.770511  	90.921808 
2408.207389  	90.826548 
2409.644267  	90.813051 
2411.081145  	90.866427 
2412.518023  	90.916070 
2413.954901  	90.936333 
2415.391779  	90.936674 
2416.828657  	90.903459 
2418.265535  	90.845907 
2419.702413  	90.878575 
2421.139290  	90.979519 
2422.576168  	90.998680 
2424.013046  	90.987252 
2425.449924  	91.020976 
2426.886802  	91.039854 
2428.323680  	91.036926 
2429.760558  	91.022502 
2431.197436  	91.013238 
2432.634314  	91.051437 
2434.071192  	91.099121 
2435.508070  	91.119025 
2436.944948  	91.136010 
2438.381825  	91.158672 
2439.818703  	91.152071 
2441.255581  	91.095664 
2442.692459  	91.064499 
2444.129337  	91.088220 
2445.566215  	91.110530 
2447.003093  	91.145576 
2448.439971  	91.153627 
2449.876849  	91.083846 
2451.313727  	91.040327 
2452.750605  	91.052907 
2454.187483  	91.047781 
2455.624360  	90.987473 
2457.061238  	90.899517 
2458.498116  	90.915431 
2459.934994  	91.009575 
2461.371872  	91.008862 
2462.808750  	90.940511 
2464.245628  	90.867763 
2465.682506  	90.820388 
2467.119384  	90.869916 
2468.556262  	90.911475 
2469.993140  	90.874680 
2471.430018  	90.861799 
2472.866895  	90.850372 
2474.303773  	90.808570 
2475.740651  	90.796042 
2477.177529  	90.824667 
2478.614407  	90.881687 
2480.051285  	90.900970 
2481.488163  	90.842723 
2482.925041  	90.774683 
2484.361919  	90.722525 
2485.798797  	90.692704 
2487.235675  	90.703956 
2488.672553  	90.742854 
2490.109430  	90.786743 
2491.546308  	90.770061 
2492.983186  	90.683701 
2494.420064  	90.619387 
2495.856942  	90.611464 
2497.293820  	90.652581 
2498.730698  	90.698361 
2500.167576  	90.682189 
2501.604454  	90.627864 
2503.041332  	90.559881 
2504.478210  	90.487872 
2505.915088  	90.446837 
2507.351965  	90.434457 
2508.788843  	90.468274 
2510.225721  	90.502135 
2511.662599  	90.446311 
2513.099477  	90.386995 
2514.536355  	90.379560 
2515.973233  	90.350700 
2517.410111  	90.321534 
2518.846989  	90.335003 
2520.283867  	90.389995 
2521.720745  	90.427674 
2523.157623  	90.369686 
2524.594500  	90.328893 
2526.031378  	90.382024 
2527.468256  	90.394064 
2528.905134  	90.348654 
2530.342012  	90.322731 
2531.778890  	90.325523 
2533.215768  	90.355825 
2534.652646  	90.381552 
2536.089524  	90.416692 
2537.526402  	90.468747 
2538.963280  	90.475711 
2540.400158  	90.494201 
2541.837035  	90.528953 
2543.273913  	90.477610 
2544.710791  	90.431484 
2546.147669  	90.454840 
2547.584547  	90.462456 
2549.021425  	90.470173 
2550.458303  	90.473851 
2551.895181  	90.431856 
2553.332059  	90.409297 
2554.768937  	90.426102 
2556.205815  	90.413209 
2557.642693  	90.346819 
2559.079570  	90.303284 
2560.516448  	90.330634 
2561.953326  	90.318751 
2563.390204  	90.246265 
2564.827082  	90.234224 
2566.263960  	90.232679 
2567.700838  	90.170239 
2569.137716  	90.114015 
2570.574594  	90.059556 
2572.011472  	90.022396 
2573.448350  	90.049981 
2574.885228  	90.046365 
2576.322105  	90.004084 
2577.758983  	90.010109 
2579.195861  	90.000358 
2580.632739  	89.959076 
2582.069617  	89.959204 
2583.506495  	89.967892 
2584.943373  	89.970720 
2586.380251  	89.965930 
2587.817129  	89.915516 
2589.254007  	89.906773 
2590.690885  	89.975435 
2592.127763  	89.997648 
2593.564641  	89.983500 
2595.001518  	89.995396 
2596.438396  	89.969627 
2597.875274  	89.922990 
2599.312152  	89.923571 
2600.749030  	89.947319 
2602.185908  	89.974816 
2603.622786  	89.984221 
2605.059664  	89.968384 
2606.496542  	89.982735 
2607.933420  	89.993250 
2609.370298  	89.952716 
2610.807176  	89.936417 
2612.244053  	89.946433 
2613.680931  	89.932089 
2615.117809  	89.938273 
2616.554687  	89.962197 
2617.991565  	89.956910 
2619.428443  	89.947851 
2620.865321  	89.957635 
2622.302199  	89.982931 
2623.739077  	90.003614 
2625.175955  	89.989581 
2626.612833  	89.958974 
2628.049711  	89.934324 
2629.486588  	89.927052 
2630.923466  	89.938528 
2632.360344  	89.912401 
2633.797222  	89.853670 
2635.234100  	89.826582 
2636.670978  	89.800916 
2638.107856  	89.749077 
2639.544734  	89.680665 
2640.981612  	89.594775 
2642.418490  	89.550688 
2643.855368  	89.525485 
2645.292246  	89.431135 
2646.729123  	89.342840 
2648.166001  	89.286341 
2649.602879  	89.174077 
2651.039757  	89.070728 
2652.476635  	89.034824 
2653.913513  	89.004102 
2655.350391  	88.969014 
2656.787269  	88.934120 
2658.224147  	88.889340 
2659.661025  	88.862188 
2661.097903  	88.880032 
2662.534781  	88.943512 
2663.971658  	89.003975 
2665.408536  	89.046014 
2666.845414  	89.128914 
2668.282292  	89.233766 
2669.719170  	89.307827 
2671.156048  	89.376253 
2672.592926  	89.430016 
2674.029804  	89.450449 
2675.466682  	89.476155 
2676.903560  	89.499579 
2678.340438  	89.501265 
2679.777316  	89.495556 
2681.214193  	89.466933 
2682.651071  	89.426595 
2684.087949  	89.413839 
2685.524827  	89.412509 
2686.961705  	89.394258 
2688.398583  	89.340893 
2689.835461  	89.252523 
2691.272339  	89.194850 
2692.709217  	89.175945 
2694.146095  	89.110507 
2695.582973  	89.029188 
2697.019851  	89.004902 
2698.456728  	88.966704 
2699.893606  	88.896207 
2701.330484  	88.873270 
2702.767362  	88.867483 
2704.204240  	88.837771 
2705.641118  	88.828828 
2707.077996  	88.848240 
2708.514874  	88.855895 
2709.951752  	88.821166 
2711.388630  	88.776646 
2712.825508  	88.767773 
2714.262386  	88.737653 
2715.699263  	88.665502 
2717.136141  	88.628474 
2718.573019  	88.626387 
2720.009897  	88.625672 
2721.446775  	88.622765 
2722.883653  	88.602725 
2724.320531  	88.604572 
2725.757409  	88.648479 
2727.194287  	88.672873 
2728.631165  	88.678231 
2730.068043  	88.705286 
2731.504921  	88.735226 
2732.941798  	88.754323 
2734.378676  	88.780309 
2735.815554  	88.803698 
2737.252432  	88.798080 
2738.689310  	88.791129 
2740.126188  	88.815898 
2741.563066  	88.823039 
2742.999944  	88.793575 
2744.436822  	88.782693 
2745.873700  	88.787185 
2747.310578  	88.789600 
2748.747456  	88.813463 
2750.184333  	88.823706 
2751.621211  	88.773759 
2753.058089  	88.706926 
2754.494967  	88.669450 
2755.931845  	88.640355 
2757.368723  	88.614101 
2758.805601  	88.613610 
2760.242479  	88.607089 
2761.679357  	88.570727 
2763.116235  	88.539311 
2764.553113  	88.509779 
2765.989991  	88.468322 
2767.426868  	88.432096 
2768.863746  	88.394819 
2770.300624  	88.369226 
2771.737502  	88.362848 
2773.174380  	88.335802 
2774.611258  	88.302778 
2776.048136  	88.282102 
2777.485014  	88.232148 
2778.921892  	88.171039 
2780.358770  	88.128527 
2781.795648  	88.072058 
2783.232526  	88.020174 
2784.669403  	87.999491 
2786.106281  	87.964761 
2787.543159  	87.929249 
2788.980037  	87.934588 
2790.416915  	87.915045 
2791.853793  	87.860546 
2793.290671  	87.857732 
2794.727549  	87.861626 
2796.164427  	87.801731 
2797.601305  	87.738479 
2799.038183  	87.685380 
2800.475061  	87.607685 
2801.911938  	87.535282 
2803.348816  	87.481508 
2804.785694  	87.433260 
2806.222572  	87.382381 
2807.659450  	87.313035 
2809.096328  	87.227015 
2810.533206  	87.142872 
2811.970084  	87.088593 
2813.406962  	87.055468 
2814.843840  	87.008624 
2816.280718  	86.975148 
2817.717596  	86.941130 
2819.154474  	86.862045 
2820.591351  	86.804611 
2822.028229  	86.767974 
2823.465107  	86.676729 
2824.901985  	86.590900 
2826.338863  	86.549187 
2827.775741  	86.491165 
2829.212619  	86.406413 
2830.649497  	86.309161 
2832.086375  	86.206680 
2833.523253  	86.106126 
2834.960131  	86.007174 
2836.397009  	85.918752 
2837.833886  	85.823638 
2839.270764  	85.697225 
2840.707642  	85.537762 
2842.144520  	85.366159 
2843.581398  	85.233679 
2845.018276  	85.113593 
2846.455154  	84.932030 
2847.892032  	84.711448 
2849.328910  	84.480766 
2850.765788  	84.247274 
2852.202666  	84.028052 
2853.639544  	83.786196 
2855.076421  	83.509748 
2856.513299  	83.220794 
2857.950177  	82.922839 
2859.387055  	82.635806 
2860.823933  	82.354665 
2862.260811  	82.088592 
2863.697689  	81.842267 
2865.134567  	81.556859 
2866.571445  	81.262152 
2868.008323  	80.998516 
2869.445201  	80.711782 
2870.882079  	80.411143 
2872.318956  	80.122726 
2873.755834  	79.846794 
2875.192712  	79.578040 
2876.629590  	79.270886 
2878.066468  	78.980631 
2879.503346  	78.780984 
2880.940224  	78.635557 
2882.377102  	78.563014 
2883.813980  	78.594415 
2885.250858  	78.712474 
2886.687736  	78.883685 
2888.124614  	79.033099 
2889.561491  	79.171282 
2890.998369  	79.364987 
2892.435247  	79.589874 
2893.872125  	79.790950 
2895.309003  	79.948261 
2896.745881  	80.087023 
2898.182759  	80.213060 
2899.619637  	80.314893 
2901.056515  	80.436555 
2902.493393  	80.538565 
2903.930271  	80.567630 
2905.367149  	80.617586 
2906.804026  	80.670746 
2908.240904  	80.621986 
2909.677782  	80.530044 
2911.114660  	80.456077 
2912.551538  	80.377748 
2913.988416  	80.270748 
2915.425294  	80.142146 
2916.862172  	80.043473 
2918.299050  	79.943850 
2919.735928  	79.814901 
2921.172806  	79.734345 
2922.609684  	79.677936 
2924.046561  	79.581455 
2925.483439  	79.451439 
2926.920317  	79.272315 
2928.357195  	79.069437 
2929.794073  	78.889585 
2931.230951  	78.768461 
2932.667829  	78.753347 
2934.104707  	78.813348 
2935.541585  	78.923204 
2936.978463  	79.088204 
2938.415341  	79.311774 
2939.852219  	79.642887 
2941.289096  	80.025238 
2942.725974  	80.383934 
2944.162852  	80.745179 
2945.599730  	81.020016 
2947.036608  	81.106750 
2948.473486  	81.027681 
2949.910364  	80.771135 
2951.347242  	80.320338 
2952.784120  	79.644687 
2954.220998  	78.674660 
2955.657876  	77.451701 
2957.094754  	75.972734 
2958.531631  	74.137887 
2959.968509  	71.927199 
2961.405387  	69.319379 
2962.842265  	66.423934 
2964.279143  	63.438037 
2965.716021  	60.501741 
2967.152899  	57.986891 
2968.589777  	56.263499 
2970.026655  	55.673906 
2971.463533  	56.476198 
2972.900411  	58.339763 
2974.337289  	60.855629 
2975.774166  	63.745239 
2977.211044  	66.742444 
2978.647922  	69.756993 
2980.084800  	72.666813 
2981.521678  	75.358785 
2982.958556  	77.796414 
2984.395434  	79.917629 
2985.832312  	81.678370 
2987.269190  	83.091613 
2988.706068  	84.244159 
2990.142946  	85.180353 
2991.579824  	85.914233 
2993.016701  	86.500794 
2994.453579  	86.951452 
2995.890457  	87.337691 
2997.327335  	87.709441 
2998.764213  	87.946815 
3000.201091  	88.103386 
3001.637969  	88.324958 
3003.074847  	88.480201 
3004.511725  	88.530654 
3005.948603  	88.655557 
3007.385481  	88.821785 
3008.822359  	88.908838 
3010.259236  	88.954392 
3011.696114  	88.995963 
3013.132992  	89.032410 
3014.569870  	89.070581 
3016.006748  	89.091702 
3017.443626  	89.095762 
3018.880504  	89.105921 
3020.317382  	89.110173 
3021.754260  	89.096647 
3023.191138  	89.100535 
3024.628016  	89.139722 
3026.064894  	89.180422 
3027.501771  	89.206575 
3028.938649  	89.201365 
3030.375527  	89.150486 
3031.812405  	89.130986 
3033.249283  	89.174315 
3034.686161  	89.186495 
3036.123039  	89.157623 
3037.559917  	89.136957 
3038.996795  	89.108776 
3040.433673  	89.076632 
3041.870551  	89.059814 
3043.307429  	89.056223 
3044.744306  	89.048672 
3046.181184  	89.001464 
3047.618062  	88.952286 
3049.054940  	88.949450 
3050.491818  	88.944513 
3051.928696  	88.923571 
3053.365574  	88.890797 
3054.802452  	88.809857 
3056.239330  	88.731628 
3057.676208  	88.729367 
3059.113086  	88.775732 
3060.549964  	88.784838 
3061.986842  	88.711829 
3063.423719  	88.645432 
3064.860597  	88.630148 
3066.297475  	88.564194 
3067.734353  	88.487508 
3069.171231  	88.502323 
3070.608109  	88.509681 
3072.044987  	88.459406 
3073.481865  	88.444518 
3074.918743  	88.439262 
3076.355621  	88.357147 
3077.792499  	88.240075 
3079.229377  	88.170323 
3080.666254  	88.146232 
3082.103132  	88.129510 
3083.540010  	88.113810 
3084.976888  	88.099136 
3086.413766  	88.064339 
3087.850644  	88.004702 
3089.287522  	87.947193 
3090.724400  	87.895721 
3092.161278  	87.835700 
3093.598156  	87.786676 
3095.035034  	87.748959 
3096.471912  	87.682288 
3097.908789  	87.582477 
3099.345667  	87.504125 
3100.782545  	87.507755 
3102.219423  	87.524658 
3103.656301  	87.430894 
3105.093179  	87.305422 
3106.530057  	87.235595 
3107.966935  	87.166793 
3109.403813  	87.122610 
3110.840691  	87.086827 
3112.277569  	87.014227 
3113.714447  	87.007936 
3115.151324  	86.997146 
3116.588202  	86.852534 
3118.025080  	86.730444 
3119.461958  	86.676742 
3120.898836  	86.587217 
3122.335714  	86.517872 
3123.772592  	86.481310 
3125.209470  	86.415613 
3126.646348  	86.337531 
3128.083226  	86.272783 
3129.520104  	86.223877 
3130.956982  	86.156721 
3132.393859  	86.061734 
3133.830737  	85.983992 
3135.267615  	85.897423 
3136.704493  	85.770143 
3138.141371  	85.665106 
3139.578249  	85.626008 
3141.015127  	85.574687 
3142.452005  	85.432667 
3143.888883  	85.301889 
3145.325761  	85.247683 
3146.762639  	85.158117 
3148.199517  	85.041330 
3149.636394  	84.940953 
3151.073272  	84.801861 
3152.510150  	84.700601 
3153.947028  	84.669227 
3155.383906  	84.571464 
3156.820784  	84.406987 
3158.257662  	84.294324 
3159.694540  	84.250563 
3161.131418  	84.173268 
3162.568296  	84.022532 
3164.005174  	83.887039 
3165.442052  	83.760377 
3166.878929  	83.610277 
3168.315807  	83.513005 
3169.752685  	83.426408 
3171.189563  	83.264325 
3172.626441  	83.072527 
3174.063319  	82.905314 
3175.500197  	82.791895 
3176.937075  	82.693846 
3178.373953  	82.535424 
3179.810831  	82.371273 
3181.247709  	82.284320 
3182.684587  	82.218141 
3184.121464  	82.070367 
3185.558342  	81.866419 
3186.995220  	81.699153 
3188.432098  	81.548657 
3189.868976  	81.361900 
3191.305854  	81.155937 
3192.742732  	81.011289 
3194.179610  	80.957869 
3195.616488  	80.813988 
3197.053366  	80.559752 
3198.490244  	80.404233 
3199.927122  	80.256487 
3201.363999  	80.070388 
3202.800877  	79.991563 
3204.237755  	79.856288 
3205.674633  	79.657199 
3207.111511  	79.596450 
3208.548389  	79.519940 
3209.985267  	79.345249 
3211.422145  	79.180672 
3212.859023  	78.979793 
3214.295901  	78.731310 
3215.732779  	78.489706 
3217.169657  	78.307385 
3218.606534  	78.188881 
3220.043412  	78.039887 
3221.480290  	77.868128 
3222.917168  	77.690554 
3224.354046  	77.488892 
3225.790924  	77.345469 
3227.227802  	77.215372 
3228.664680  	77.010448 
3230.101558  	76.792299 
3231.538436  	76.615616 
3232.975314  	76.484340 
3234.412192  	76.323133 
3235.849069  	76.115927 
3237.285947  	75.951252 
3238.722825  	75.823477 
3240.159703  	75.749579 
3241.596581  	75.658069 
3243.033459  	75.433803 
3244.470337  	75.239594 
3245.907215  	75.074754 
3247.344093  	74.852926 
3248.780971  	74.759874 
3250.217849  	74.688113 
3251.654727  	74.489711 
3253.091604  	74.333640 
3254.528482  	74.214241 
3255.965360  	74.116011 
3257.402238  	74.072257 
3258.839116  	73.984153 
3260.275994  	73.858823 
3261.712872  	73.706087 
3263.149750  	73.552819 
3264.586628  	73.426306 
3266.023506  	73.225181 
3267.460384  	73.063154 
3268.897262  	73.009887 
3270.334139  	72.922427 
3271.771017  	72.846455 
3273.207895  	72.718363 
3274.644773  	72.493861 
3276.081651  	72.407424 
3277.518529  	72.410924 
3278.955407  	72.344032 
3280.392285  	72.236195 
3281.829163  	72.121342 
3283.266041  	72.064682 
3284.702919  	71.986360 
3286.139797  	71.826521 
3287.576674  	71.735084 
3289.013552  	71.690191 
3290.450430  	71.641131 
3291.887308  	71.600799 
3293.324186  	71.483629 
3294.761064  	71.357284 
3296.197942  	71.311286 
3297.634820  	71.309887 
3299.071698  	71.312120 
3300.508576  	71.230715 
3301.945454  	71.105549 
3303.382332  	71.032690 
3304.819210  	71.007313 
3306.256087  	71.028413 
3307.692965  	70.991210 
3309.129843  	70.895014 
3310.566721  	70.880425 
3312.003599  	70.875811 
3313.440477  	70.850930 
3314.877355  	70.827701 
3316.314233  	70.742723 
3317.751111  	70.693295 
3319.187989  	70.699589 
3320.624867  	70.692430 
3322.061745  	70.710654 
3323.498622  	70.696652 
3324.935500  	70.662352 
3326.372378  	70.677344 
3327.809256  	70.683862 
3329.246134  	70.683301 
3330.683012  	70.672273 
3332.119890  	70.684649 
3333.556768  	70.749446 
3334.993646  	70.747629 
3336.430524  	70.742599 
3337.867402  	70.789055 
3339.304280  	70.807641 
3340.741157  	70.900385 
3342.178035  	70.995300 
3343.614913  	70.970673 
3345.051791  	70.956640 
3346.488669  	70.995918 
3347.925547  	71.144865 
3349.362425  	71.339808 
3350.799303  	71.396189 
3352.236181  	71.443172 
3353.673059  	71.508250 
3355.109937  	71.556435 
3356.546815  	71.694774 
3357.983692  	71.784730 
3359.420570  	71.865998 
3360.857448  	72.017791 
3362.294326  	72.078192 
3363.731204  	72.230350 
3365.168082  	72.423160 
3366.604960  	72.426922 
3368.041838  	72.570912 
3369.478716  	72.817552 
3370.915594  	72.904554 
3372.352472  	73.026574 
3373.789350  	73.166504 
3375.226227  	73.262084 
3376.663105  	73.397251 
3378.099983  	73.554164 
3379.536861  	73.819329 
3380.973739  	74.072773 
3382.410617  	74.178556 
3383.847495  	74.336520 
3385.284373  	74.531110 
3386.721251  	74.665267 
3388.158129  	74.803219 
3389.595007  	74.964149 
3391.031885  	75.189142 
3392.468762  	75.395945 
3393.905640  	75.536815 
3395.342518  	75.710118 
3396.779396  	75.866015 
3398.216274  	76.028929 
3399.653152  	76.209028 
3401.090030  	76.320943 
3402.526908  	76.467928 
3403.963786  	76.636501 
3405.400664  	76.843066 
3406.837542  	77.182236 
3408.274420  	77.393926 
3409.711297  	77.474158 
3411.148175  	77.661593 
3412.585053  	77.848565 
3414.021931  	78.030230 
3415.458809  	78.227026 
3416.895687  	78.350976 
3418.332565  	78.522445 
3419.769443  	78.724539 
3421.206321  	78.874018 
3422.643199  	79.039958 
3424.080077  	79.228412 
3425.516955  	79.479034 
3426.953832  	79.722785 
3428.390710  	79.865545 
3429.827588  	80.006840 
3431.264466  	80.119075 
3432.701344  	80.242280 
3434.138222  	80.464201 
3435.575100  	80.622793 
3437.011978  	80.775020 
3438.448856  	80.990251 
3439.885734  	81.118598 
3441.322612  	81.253568 
3442.759490  	81.391247 
3444.196367  	81.453496 
3445.633245  	81.636015 
3447.070123  	81.869588 
3448.507001  	81.987900 
3449.943879  	82.139144 
3451.380757  	82.343845 
3452.817635  	82.498076 
3454.254513  	82.631218 
3455.691391  	82.804897 
3457.128269  	82.974276 
3458.565147  	83.089011 
3460.002025  	83.243292 
3461.438902  	83.411761 
3462.875780  	83.485756 
3464.312658  	83.623163 
3465.749536  	83.887284 
3467.186414  	84.094586 
3468.623292  	84.189320 
3470.060170  	84.258861 
3471.497048  	84.404636 
3472.933926  	84.613448 
3474.370804  	84.782995 
3475.807682  	84.932685 
3477.244560  	85.097889 
3478.681437  	85.263905 
3480.118315  	85.419602 
3481.555193  	85.538083 
3482.992071  	85.673087 
3484.428949  	85.830175 
3485.865827  	85.935792 
3487.302705  	86.043569 
3488.739583  	86.171286 
3490.176461  	86.273936 
3491.613339  	86.373631 
3493.050217  	86.458920 
3494.487095  	86.572936 
3495.923972  	86.751178 
3497.360850  	86.892303 
3498.797728  	87.000192 
3500.234606  	87.130690 
3501.671484  	87.251542 
3503.108362  	87.370634 
3504.545240  	87.480664 
3505.982118  	87.565330 
3507.418996  	87.654520 
3508.855874  	87.739588 
3510.292752  	87.857240 
3511.729630  	88.034295 
3513.166507  	88.147938 
3514.603385  	88.154217 
3516.040263  	88.191530 
3517.477141  	88.307912 
3518.914019  	88.409974 
3520.350897  	88.531473 
3521.787775  	88.711666 
3523.224653  	88.794077 
3524.661531  	88.785850 
3526.098409  	88.847872 
3527.535287  	88.882187 
3528.972165  	88.885855 
3530.409043  	89.042663 
3531.845920  	89.250468 
3533.282798  	89.357587 
3534.719676  	89.399408 
3536.156554  	89.408058 
3537.593432  	89.432991 
3539.030310  	89.516467 
3540.467188  	89.595410 
3541.904066  	89.656440 
3543.340944  	89.726268 
3544.777822  	89.766328 
3546.214700  	89.764920 
3547.651578  	89.818350 
3549.088455  	89.931626 
3550.525333  	89.977479 
3551.962211  	89.994873 
3553.399089  	90.089325 
3554.835967  	90.163563 
3556.272845  	90.143581 
3557.709723  	90.128370 
3559.146601  	90.154430 
3560.583479  	90.220720 
3562.020357  	90.355336 
3563.457235  	90.497201 
3564.894113  	90.587587 
3566.330990  	90.591615 
3567.767868  	90.502961 
3569.204746  	90.513015 
3570.641624  	90.695107 
3572.078502  	90.848947 
3573.515380  	90.888744 
3574.952258  	90.859674 
3576.389136  	90.847153 
3577.826014  	90.880241 
3579.262892  	90.928130 
3580.699770  	90.957125 
3582.136648  	91.003162 
3583.573525  	91.083577 
3585.010403  	91.157874 
3586.447281  	91.179332 
3587.884159  	91.081120 
3589.321037  	90.980277 
3590.757915  	91.017980 
3592.194793  	91.111795 
3593.631671  	91.243935 
3595.068549  	91.358448 
3596.505427  	91.334245 
3597.942305  	91.250306 
3599.379183  	91.196443 
3600.816060  	91.168340 
3602.252938  	91.236452 
3603.689816  	91.431750 
3605.126694  	91.574482 
3606.563572  	91.551991 
3608.000450  	91.479367 
3609.437328  	91.505507 
3610.874206  	91.545908 
3612.311084  	91.502450 
3613.747962  	91.467493 
3615.184840  	91.481860 
3616.621718  	91.431393 
3618.058595  	91.343365 
3619.495473  	91.337559 
3620.932351  	91.362737 
3622.369229  	91.408339 
3623.806107  	91.552706 
3625.242985  	91.666290 
3626.679863  	91.638350 
3628.116741  	91.615361 
3629.553619  	91.586438 
3630.990497  	91.507728 
3632.427375  	91.548098 
3633.864253  	91.618731 
3635.301130  	91.639841 
3636.738008  	91.685971 
3638.174886  	91.687329 
3639.611764  	91.634762 
3641.048642  	91.706504 
3642.485520  	91.784243 
3643.922398  	91.704853 
3645.359276  	91.731336 
3646.796154  	91.835250 
3648.233032  	91.745715 
3649.669910  	91.719546 
3651.106788  	91.883072 
3652.543665  	91.808673 
3653.980543  	91.762464 
3655.417421  	91.982651 
3656.854299  	92.153419 
3658.291177  	91.955930 
3659.728055  	91.805214 
3661.164933  	91.780535 
3662.601811  	91.761597 
3664.038689  	91.828638 
3665.475567  	91.924548 
3666.912445  	91.936978 
3668.349323  	91.910092 
3669.786200  	91.866919 
3671.223078  	91.764745 
3672.659956  	91.751720 
3674.096834  	91.815983 
3675.533712  	91.850564 
3676.970590  	91.847950 
3678.407468  	91.906599 
3679.844346  	91.910261 
3681.281224  	91.812233 
3682.718102  	91.738948 
3684.154980  	91.686568 
3685.591858  	91.743148 
3687.028735  	91.974458 
3688.465613  	92.133970 
3689.902491  	92.008776 
3691.339369  	91.909312 
3692.776247  	91.822843 
3694.213125  	91.703624 
3695.650003  	91.685515 
3697.086881  	91.741947 
3698.523759  	91.846287 
3699.960637  	91.940347 
3701.397515  	91.942235 
3702.834393  	91.922149 
3704.271270  	91.926602 
3705.708148  	91.883430 
3707.145026  	91.886762 
3708.581904  	91.936420 
3710.018782  	91.910311 
3711.455660  	91.892853 
3712.892538  	91.910279 
3714.329416  	91.799322 
3715.766294  	91.735175 
3717.203172  	91.808716 
3718.640050  	91.881623 
3720.076928  	91.883851 
3721.513805  	91.899516 
3722.950683  	91.875215 
3724.387561  	91.803617 
3725.824439  	91.852193 
3727.261317  	91.969990 
3728.698195  	91.990816 
3730.135073  	92.007199 
3731.571951  	91.988078 
3733.008829  	91.871341 
3734.445707  	91.939914 
3735.882585  	92.016037 
3737.319463  	91.831971 
3738.756340  	91.879384 
3740.193218  	92.000551 
3741.630096  	91.904393 
3743.066974  	91.958404 
3744.503852  	92.209610 
3745.940730  	91.979368 
3747.377608  	91.776607 
3748.814486  	91.828944 
3750.251364  	91.932315 
3751.688242  	92.068009 
3753.125120  	92.041698 
3754.561998  	91.927603 
3755.998875  	91.977553 
3757.435753  	91.964553 
3758.872631  	91.828664 
3760.309509  	91.885496 
3761.746387  	91.993583 
3763.183265  	91.991107 
3764.620143  	92.025216 
3766.057021  	91.967162 
3767.493899  	91.804734 
3768.930777  	91.774510 
3770.367655  	91.787940 
3771.804533  	91.794226 
3773.241411  	91.876462 
3774.678288  	91.963881 
3776.115166  	91.948033 
3777.552044  	91.930188 
3778.988922  	91.920856 
3780.425800  	91.879341 
3781.862678  	91.840879 
3783.299556  	91.868370 
3784.736434  	91.851535 
3786.173312  	91.788071 
3787.610190  	91.788663 
3789.047068  	91.745419 
3790.483946  	91.639073 
3791.920823  	91.722900 
3793.357701  	91.819310 
3794.794579  	91.741691 
3796.231457  	91.830174 
3797.668335  	91.887596 
3799.105213  	91.778373 
3800.542091  	91.920912 
3801.978969  	92.022228 
3803.415847  	91.654846 
3804.852725  	91.580617 
3806.289603  	91.799179 
3807.726481  	91.968162 
3809.163358  	91.862577 
3810.600236  	91.717592 
3812.037114  	91.662533 
3813.473992  	91.669269 
3814.910870  	91.702736 
3816.347748  	91.784977 
3817.784626  	91.828585 
3819.221504  	91.856480 
3820.658382  	91.795002 
3822.095260  	91.431372 
3823.532138  	91.382922 
3824.969016  	91.541932 
3826.405893  	91.536898 
3827.842771  	91.607187 
3829.279649  	91.787040 
3830.716527  	91.801716 
3832.153405  	91.823675 
3833.590283  	91.930328 
3835.027161  	91.876643 
3836.464039  	91.774940 
3837.900917  	91.789932 
3839.337795  	91.761279 
3840.774673  	91.614647 
3842.211551  	91.553913 
3843.648428  	91.631293 
3845.085306  	91.713610 
3846.522184  	91.788447 
3847.959062  	91.854775 
3849.395940  	91.833028 
3850.832818  	91.850278 
3852.269696  	91.935188 
3853.706574  	91.768485 
3855.143452  	91.602318 
3856.580330  	91.671665 
3858.017208  	91.646570 
3859.454086  	91.708351 
3860.890963  	91.809446 
3862.327841  	91.695229 
3863.764719  	91.630400 
3865.201597  	91.794872 
3866.638475  	91.843419 
3868.075353  	91.801670 
3869.512231  	91.862443 
3870.949109  	91.865703 
3872.385987  	91.763132 
3873.822865  	91.699940 
3875.259743  	91.640808 
3876.696621  	91.657473 
3878.133498  	91.761289 
3879.570376  	91.901577 
3881.007254  	92.049279 
3882.444132  	92.082433 
3883.881010  	91.985663 
3885.317888  	91.913821 
3886.754766  	91.844579 
3888.191644  	91.739685 
3889.628522  	91.723099 
3891.065400  	91.766203 
3892.502278  	91.791747 
3893.939156  	91.835749 
3895.376033  	91.846115 
3896.812911  	91.844953 
3898.249789  	91.896334 
3899.686667  	91.829307 
3901.123545  	91.681879 
3902.560423  	91.718804 
3903.997301  	91.770062 
3905.434179  	91.725531 
3906.871057  	91.731234 
3908.307935  	91.768296 
3909.744813  	91.821779 
3911.181691  	91.883980 
3912.618568  	91.879318 
3914.055446  	91.848248 
3915.492324  	91.815052 
3916.929202  	91.788128 
3918.366080  	91.782945 
3919.802958  	91.764875 
3921.239836  	91.786646 
3922.676714  	91.820132 
3924.113592  	91.793772 
3925.550470  	91.737654 
3926.987348  	91.749683 
3928.424226  	91.826400 
3929.861103  	91.871060 
3931.297981  	91.837309 
3932.734859  	91.828830 
3934.171737  	91.853882 
3935.608615  	91.803208 
3937.045493  	91.741684 
3938.482371  	91.776109 
3939.919249  	91.843169 
3941.356127  	91.830508 
3942.793005  	91.785671 
3944.229883  	91.772509 
3945.666761  	91.782788 
3947.103638  	91.767239 
3948.540516  	91.759060 
3949.977394  	91.752137 
3951.414272  	91.743516 
3952.851150  	91.761442 
3954.288028  	91.774804 
3955.724906  	91.760945 
3957.161784  	91.787481 
3958.598662  	91.825427 
3960.035540  	91.821501 
3961.472418  	91.811867 
3962.909296  	91.777755 
3964.346173  	91.708963 
3965.783051  	91.670505 
3967.219929  	91.688931 
3968.656807  	91.749216 
3970.093685  	91.792683 
3971.530563  	91.757526 
3972.967441  	91.708115 
3974.404319  	91.728081 
3975.841197  	91.762811 
3977.278075  	91.760437 
3978.714953  	91.750721 
3980.151831  	91.737928 
3981.588708  	91.719975 
3983.025586  	91.713021 
3984.462464  	91.724504 
3985.899342  	91.749512 
3987.336220  	91.737278 
3988.773098  	91.680190 
3990.209976  	91.657373 
3991.646854  	91.677048 
3993.083732  	91.693483 
3994.520610  	91.689345 
3995.957488  	91.670077 
3997.394366  	91.707213 
3998.831244  	91.772890 
4000.268121  	91.751306 