##TITLE=No Description
##DATA TYPE=INFRARED SPECTRUM
##XUNITS=1/CM
##YUNITS=%T
399.452061  	29.284580 
400.888939  	28.968606 
402.325817  	29.952361 
403.762695  	29.109721 
405.199573  	29.735297 
406.636451  	30.110903 
408.073328  	29.519274 
409.510206  	29.802355 
410.947084  	29.357722 
412.383962  	29.548766 
413.820840  	30.540411 
415.257718  	30.106182 
416.694596  	30.375482 
418.131474  	30.720043 
419.568352  	29.748755 
421.005230  	29.937821 
422.442108  	29.832782 
423.878986  	29.602178 
425.315863  	29.760446 
426.752741  	29.764832 
428.189619  	30.382891 
429.626497  	30.415597 
431.063375  	30.078438 
432.500253  	30.886263 
433.937131  	30.762543 
435.374009  	29.691552 
436.810887  	29.777461 
438.247765  	30.200168 
439.684643  	30.478368 
441.121521  	30.341508 
442.558398  	29.800162 
443.995276  	29.590685 
445.432154  	29.323313 
446.869032  	29.263096 
448.305910  	29.665858 
449.742788  	29.980846 
451.179666  	30.124036 
452.616544  	29.736046 
454.053422  	29.506628 
455.490300  	30.158387 
456.927178  	30.269127 
458.364056  	29.833641 
459.800933  	30.066825 
461.237811  	30.344048 
462.674689  	30.529921 
464.111567  	30.499066 
465.548445  	30.511613 
466.985323  	30.602993 
468.422201  	30.151808 
469.859079  	29.954396 
471.295957  	30.234757 
472.732835  	30.317072 
474.169713  	30.585562 
475.606591  	30.704465 
477.043469  	30.498405 
478.480346  	30.588968 
479.917224  	30.470746 
481.354102  	30.155148 
482.790980  	30.229772 
484.227858  	30.321406 
485.664736  	30.437911 
487.101614  	30.697369 
488.538492  	30.835102 
489.975370  	30.804140 
491.412248  	30.735702 
492.849126  	30.937099 
494.286004  	31.043806 
495.722881  	30.944261 
497.159759  	31.167360 
498.596637  	31.194536 
500.033515  	30.910045 
501.470393  	31.064463 
502.907271  	31.239527 
504.344149  	31.209208 
505.781027  	31.291899 
507.217905  	31.311253 
508.654783  	31.328600 
510.091661  	31.294132 
511.528539  	31.316660 
512.965416  	31.533688 
514.402294  	31.519255 
515.839172  	31.461036 
517.276050  	31.537270 
518.712928  	31.441384 
520.149806  	31.579650 
521.586684  	31.856212 
523.023562  	31.796545 
524.460440  	31.745919 
525.897318  	31.827245 
527.334196  	31.902071 
528.771074  	31.949729 
530.207951  	31.942270 
531.644829  	31.994686 
533.081707  	32.077999 
534.518585  	32.205986 
535.955463  	32.365459 
537.392341  	32.338699 
538.829219  	32.410096 
540.266097  	32.545672 
541.702975  	32.480257 
543.139853  	32.611637 
544.576731  	32.794631 
546.013609  	32.716803 
547.450486  	32.761361 
548.887364  	32.922710 
550.324242  	33.112830 
551.761120  	33.282220 
553.197998  	33.205458 
554.634876  	33.134901 
556.071754  	33.228407 
557.508632  	33.373192 
558.945510  	33.492720 
560.382388  	33.432604 
561.819266  	33.485352 
563.256144  	33.657623 
564.693021  	33.601846 
566.129899  	33.649889 
567.566777  	33.833614 
569.003655  	33.985268 
570.440533  	34.276089 
571.877411  	34.360559 
573.314289  	34.312864 
574.751167  	34.488115 
576.188045  	34.498490 
577.624923  	34.448208 
579.061801  	34.632720 
580.498679  	34.773875 
581.935556  	34.895593 
583.372434  	35.004815 
584.809312  	35.081627 
586.246190  	35.277289 
587.683068  	35.418622 
589.119946  	35.474409 
590.556824  	35.578326 
591.993702  	35.725370 
593.430580  	35.924127 
594.867458  	36.000837 
596.304336  	36.017885 
597.741214  	36.145406 
599.178091  	36.226067 
600.614969  	36.385422 
602.051847  	36.598467 
603.488725  	36.612902 
604.925603  	36.736140 
606.362481  	36.992419 
607.799359  	37.147132 
609.236237  	37.269884 
610.673115  	37.385044 
612.109993  	37.522473 
613.546871  	37.699795 
614.983749  	37.805388 
616.420626  	37.946833 
617.857504  	38.126529 
619.294382  	38.264367 
620.731260  	38.440040 
622.168138  	38.597238 
623.605016  	38.709292 
625.041894  	38.829828 
626.478772  	38.878079 
627.915650  	38.951690 
629.352528  	39.082087 
630.789406  	39.209511 
632.226284  	39.333844 
633.663161  	39.351542 
635.100039  	39.404207 
636.536917  	39.631911 
637.973795  	39.798431 
639.410673  	39.889694 
640.847551  	39.974493 
642.284429  	40.072723 
643.721307  	40.273971 
645.158185  	40.451807 
646.595063  	40.535903 
648.031941  	40.760255 
649.468819  	40.925683 
650.905696  	41.036310 
652.342574  	41.227204 
653.779452  	41.367714 
655.216330  	41.567849 
656.653208  	41.798584 
658.090086  	41.960584 
659.526964  	42.125364 
660.963842  	42.321647 
662.400720  	42.506770 
663.837598  	42.682456 
665.274476  	42.779076 
666.711354  	42.909426 
668.148231  	43.145590 
669.585109  	43.373673 
671.021987  	43.522332 
672.458865  	43.699422 
673.895743  	43.905807 
675.332621  	44.058398 
676.769499  	44.212204 
678.206377  	44.429892 
679.643255  	44.605880 
681.080133  	44.774078 
682.517011  	44.997118 
683.953889  	45.193943 
685.390766  	45.391260 
686.827644  	45.569257 
688.264522  	45.737235 
689.701400  	45.963089 
691.138278  	46.146751 
692.575156  	46.285532 
694.012034  	46.491126 
695.448912  	46.693336 
696.885790  	46.884820 
698.322668  	47.107339 
699.759546  	47.275670 
701.196424  	47.474050 
702.633301  	47.752882 
704.070179  	47.997308 
705.507057  	48.209585 
706.943935  	48.367489 
708.380813  	48.530981 
709.817691  	48.770570 
711.254569  	48.989800 
712.691447  	49.188172 
714.128325  	49.414867 
715.565203  	49.635668 
717.002081  	49.825110 
718.438959  	50.024063 
719.875837  	50.263801 
721.312714  	50.511601 
722.749592  	50.718570 
724.186470  	50.948851 
725.623348  	51.164857 
727.060226  	51.308203 
728.497104  	51.509512 
729.933982  	51.735433 
731.370860  	51.950112 
732.807738  	52.186869 
734.244616  	52.431208 
735.681494  	52.704877 
737.118372  	52.943704 
738.555249  	53.104857 
739.992127  	53.317135 
741.429005  	53.547325 
742.865883  	53.795017 
744.302761  	54.083196 
745.739639  	54.320422 
747.176517  	54.568343 
748.613395  	54.812093 
750.050273  	54.970559 
751.487151  	55.175179 
752.924029  	55.441324 
754.360907  	55.708047 
755.797784  	55.965351 
757.234662  	56.153725 
758.671540  	56.375795 
760.108418  	56.685251 
761.545296  	56.959282 
762.982174  	57.187023 
764.419052  	57.383184 
765.855930  	57.613841 
767.292808  	57.913301 
768.729686  	58.154715 
770.166564  	58.394934 
771.603442  	58.653523 
773.040319  	58.821388 
774.477197  	59.072148 
775.914075  	59.400150 
777.350953  	59.583494 
778.787831  	59.759558 
780.224709  	60.028182 
781.661587  	60.277610 
783.098465  	60.532185 
784.535343  	60.804807 
785.972221  	61.049080 
787.409099  	61.301612 
788.845977  	61.603525 
790.282854  	61.894615 
791.719732  	62.121072 
793.156610  	62.361733 
794.593488  	62.618225 
796.030366  	62.842548 
797.467244  	63.123398 
798.904122  	63.403519 
800.341000  	63.606687 
801.777878  	63.873987 
803.214756  	64.173286 
804.651634  	64.389190 
806.088512  	64.615860 
807.525389  	64.893048 
808.962267  	65.164631 
810.399145  	65.418350 
811.836023  	65.670592 
813.272901  	65.948774 
814.709779  	66.221138 
816.146657  	66.456684 
817.583535  	66.696164 
819.020413  	66.961173 
820.457291  	67.242964 
821.894169  	67.524146 
823.331047  	67.788722 
824.767924  	68.044700 
826.204802  	68.299814 
827.641680  	68.551591 
829.078558  	68.797157 
830.515436  	69.068165 
831.952314  	69.379214 
833.389192  	69.650839 
834.826070  	69.867548 
836.262948  	70.110975 
837.699826  	70.387179 
839.136704  	70.658393 
840.573582  	70.910834 
842.010459  	71.161153 
843.447337  	71.442464 
844.884215  	71.723420 
846.321093  	71.975102 
847.757971  	72.225221 
849.194849  	72.472494 
850.631727  	72.712247 
852.068605  	72.953760 
853.505483  	73.197836 
854.942361  	73.451684 
856.379239  	73.697709 
857.816117  	73.934082 
859.252994  	74.184754 
860.689872  	74.434290 
862.126750  	74.688645 
863.563628  	74.966683 
865.000506  	75.224895 
866.437384  	75.448523 
867.874262  	75.674273 
869.311140  	75.889806 
870.748018  	76.083818 
872.184896  	76.316104 
873.621774  	76.600269 
875.058652  	76.866172 
876.495529  	77.095916 
877.932407  	77.318190 
879.369285  	77.536504 
880.806163  	77.754816 
882.243041  	77.975184 
883.679919  	78.201376 
885.116797  	78.429736 
886.553675  	78.642227 
887.990553  	78.870620 
889.427431  	79.136911 
890.864309  	79.391091 
892.301187  	79.600145 
893.738064  	79.783173 
895.174942  	79.985197 
896.611820  	80.198638 
898.048698  	80.368588 
899.485576  	80.527999 
900.922454  	80.730498 
902.359332  	80.956902 
903.796210  	81.168646 
905.233088  	81.329475 
906.669966  	81.476957 
908.106844  	81.668828 
909.543722  	81.880784 
910.980599  	82.085713 
912.417477  	82.247106 
913.854355  	82.390263 
915.291233  	82.601808 
916.728111  	82.800210 
918.164989  	82.944198 
919.601867  	83.126778 
921.038745  	83.276120 
922.475623  	83.372662 
923.912501  	83.515316 
925.349379  	83.657476 
926.786257  	83.790965 
928.223134  	83.958122 
929.660012  	84.114131 
931.096890  	84.257393 
932.533768  	84.394873 
933.970646  	84.525787 
935.407524  	84.662351 
936.844402  	84.774286 
938.281280  	84.884965 
939.718158  	85.026028 
941.155036  	85.159709 
942.591914  	85.262878 
944.028792  	85.339854 
945.465670  	85.438600 
946.902547  	85.570069 
948.339425  	85.692634 
949.776303  	85.832900 
951.213181  	85.948635 
952.650059  	85.992357 
954.086937  	86.066976 
955.523815  	86.186578 
956.960693  	86.301367 
958.397571  	86.410645 
959.834449  	86.486853 
961.271327  	86.573185 
962.708205  	86.677743 
964.145082  	86.752882 
965.581960  	86.850100 
967.018838  	86.938641 
968.455716  	86.993281 
969.892594  	87.089734 
971.329472  	87.168377 
972.766350  	87.214033 
974.203228  	87.289459 
975.640106  	87.345456 
977.076984  	87.398070 
978.513862  	87.480005 
979.950740  	87.570177 
981.387617  	87.686128 
982.824495  	87.765910 
984.261373  	87.791756 
985.698251  	87.850358 
987.135129  	87.930266 
988.572007  	87.997697 
990.008885  	88.044578 
991.445763  	88.082316 
992.882641  	88.145544 
994.319519  	88.188181 
995.756397  	88.215242 
997.193275  	88.278593 
998.630152  	88.332027 
1000.067030  	88.378038 
1001.503908  	88.430625 
1002.940786  	88.467556 
1004.377664  	88.516434 
1005.814542  	88.551382 
1007.251420  	88.589725 
1008.688298  	88.668425 
1010.125176  	88.693543 
1011.562054  	88.701053 
1012.998932  	88.773082 
1014.435810  	88.827964 
1015.872687  	88.866026 
1017.309565  	88.908789 
1018.746443  	88.920830 
1020.183321  	88.959141 
1021.620199  	89.022243 
1023.057077  	89.041331 
1024.493955  	89.031248 
1025.930833  	89.038082 
1027.367711  	89.081791 
1028.804589  	89.123202 
1030.241467  	89.131678 
1031.678345  	89.142472 
1033.115222  	89.167311 
1034.552100  	89.191966 
1035.988978  	89.206590 
1037.425856  	89.230415 
1038.862734  	89.262894 
1040.299612  	89.244172 
1041.736490  	89.238856 
1043.173368  	89.292641 
1044.610246  	89.291701 
1046.047124  	89.300347 
1047.484002  	89.383734 
1048.920880  	89.401725 
1050.357757  	89.374133 
1051.794635  	89.373962 
1053.231513  	89.386097 
1054.668391  	89.431127 
1056.105269  	89.443643 
1057.542147  	89.424743 
1058.979025  	89.450912 
1060.415903  	89.451219 
1061.852781  	89.440954 
1063.289659  	89.482517 
1064.726537  	89.516096 
1066.163415  	89.547890 
1067.600292  	89.563026 
1069.037170  	89.519337 
1070.474048  	89.495865 
1071.910926  	89.532298 
1073.347804  	89.582892 
1074.784682  	89.593174 
1076.221560  	89.550621 
1077.658438  	89.515384 
1079.095316  	89.521948 
1080.532194  	89.570708 
1081.969072  	89.619785 
1083.405950  	89.623992 
1084.842827  	89.639422 
1086.279705  	89.651382 
1087.716583  	89.615062 
1089.153461  	89.604014 
1090.590339  	89.617502 
1092.027217  	89.637263 
1093.464095  	89.680685 
1094.900973  	89.692504 
1096.337851  	89.691663 
1097.774729  	89.703609 
1099.211607  	89.695490 
1100.648485  	89.692517 
1102.085362  	89.685586 
1103.522240  	89.693222 
1104.959118  	89.727565 
1106.395996  	89.717234 
1107.832874  	89.722080 
1109.269752  	89.739306 
1110.706630  	89.684008 
1112.143508  	89.679868 
1113.580386  	89.723489 
1115.017264  	89.704848 
1116.454142  	89.695518 
1117.891020  	89.682109 
1119.327897  	89.661873 
1120.764775  	89.702269 
1122.201653  	89.719242 
1123.638531  	89.702520 
1125.075409  	89.695873 
1126.512287  	89.679978 
1127.949165  	89.697844 
1129.386043  	89.706172 
1130.822921  	89.666444 
1132.259799  	89.655942 
1133.696677  	89.656557 
1135.133555  	89.661012 
1136.570432  	89.686548 
1138.007310  	89.663144 
1139.444188  	89.607496 
1140.881066  	89.585043 
1142.317944  	89.594927 
1143.754822  	89.602990 
1145.191700  	89.582638 
1146.628578  	89.574850 
1148.065456  	89.570755 
1149.502334  	89.530402 
1150.939212  	89.512456 
1152.376090  	89.510311 
1153.812967  	89.488117 
1155.249845  	89.485466 
1156.686723  	89.488556 
1158.123601  	89.485127 
1159.560479  	89.480125 
1160.997357  	89.463429 
1162.434235  	89.452804 
1163.871113  	89.424652 
1165.307991  	89.407618 
1166.744869  	89.440377 
1168.181747  	89.438061 
1169.618625  	89.434190 
1171.055502  	89.474920 
1172.492380  	89.453271 
1173.929258  	89.406180 
1175.366136  	89.406815 
1176.803014  	89.416127 
1178.239892  	89.433114 
1179.676770  	89.422771 
1181.113648  	89.391766 
1182.550526  	89.404387 
1183.987404  	89.410194 
1185.424282  	89.388860 
1186.861160  	89.375958 
1188.298038  	89.376695 
1189.734915  	89.391474 
1191.171793  	89.366913 
1192.608671  	89.331276 
1194.045549  	89.347848 
1195.482427  	89.342484 
1196.919305  	89.326094 
1198.356183  	89.335184 
1199.793061  	89.309981 
1201.229939  	89.306252 
1202.666817  	89.334248 
1204.103695  	89.312415 
1205.540573  	89.287836 
1206.977450  	89.286864 
1208.414328  	89.282927 
1209.851206  	89.284147 
1211.288084  	89.282818 
1212.724962  	89.296238 
1214.161840  	89.303768 
1215.598718  	89.276607 
1217.035596  	89.271519 
1218.472474  	89.281206 
1219.909352  	89.276421 
1221.346230  	89.279529 
1222.783108  	89.266255 
1224.219985  	89.244982 
1225.656863  	89.242826 
1227.093741  	89.237519 
1228.530619  	89.229263 
1229.967497  	89.217546 
1231.404375  	89.213571 
1232.841253  	89.222989 
1234.278131  	89.210343 
1235.715009  	89.206051 
1237.151887  	89.213809 
1238.588765  	89.176853 
1240.025643  	89.151094 
1241.462520  	89.171887 
1242.899398  	89.169878 
1244.336276  	89.148203 
1245.773154  	89.156075 
1247.210032  	89.177938 
1248.646910  	89.171768 
1250.083788  	89.154437 
1251.520666  	89.156779 
1252.957544  	89.152473 
1254.394422  	89.150634 
1255.831300  	89.164665 
1257.268178  	89.152024 
1258.705055  	89.133076 
1260.141933  	89.129302 
1261.578811  	89.111053 
1263.015689  	89.092012 
1264.452567  	89.084006 
1265.889445  	89.096578 
1267.326323  	89.121898 
1268.763201  	89.102418 
1270.200079  	89.059679 
1271.636957  	89.042415 
1273.073835  	89.041446 
1274.510713  	89.052614 
1275.947590  	89.049680 
1277.384468  	89.036169 
1278.821346  	89.041469 
1280.258224  	89.032311 
1281.695102  	89.016942 
1283.131980  	89.017830 
1284.568858  	89.015426 
1286.005736  	89.022552 
1287.442614  	89.021400 
1288.879492  	89.009940 
1290.316370  	89.020569 
1291.753248  	89.023355 
1293.190125  	89.035028 
1294.627003  	89.062037 
1296.063881  	89.056667 
1297.500759  	89.063893 
1298.937637  	89.078596 
1300.374515  	89.065866 
1301.811393  	89.090591 
1303.248271  	89.125876 
1304.685149  	89.124439 
1306.122027  	89.116081 
1307.558905  	89.111317 
1308.995783  	89.131396 
1310.432660  	89.154138 
1311.869538  	89.138416 
1313.306416  	89.132068 
1314.743294  	89.148729 
1316.180172  	89.154338 
1317.617050  	89.168903 
1319.053928  	89.164126 
1320.490806  	89.157516 
1321.927684  	89.172411 
1323.364562  	89.180604 
1324.801440  	89.188807 
1326.238318  	89.196810 
1327.675195  	89.198168 
1329.112073  	89.202601 
1330.548951  	89.198521 
1331.985829  	89.189272 
1333.422707  	89.188225 
1334.859585  	89.175879 
1336.296463  	89.156466 
1337.733341  	89.134221 
1339.170219  	89.120494 
1340.607097  	89.133703 
1342.043975  	89.152500 
1343.480853  	89.165127 
1344.917730  	89.154495 
1346.354608  	89.141556 
1347.791486  	89.158095 
1349.228364  	89.152466 
1350.665242  	89.128314 
1352.102120  	89.150810 
1353.538998  	89.155929 
1354.975876  	89.150930 
1356.412754  	89.157658 
1357.849632  	89.126748 
1359.286510  	89.133543 
1360.723388  	89.147304 
1362.160265  	89.136233 
1363.597143  	89.148873 
1365.034021  	89.167798 
1366.470899  	89.174130 
1367.907777  	89.178301 
1369.344655  	89.158560 
1370.781533  	89.136321 
1372.218411  	89.131788 
1373.655289  	89.134222 
1375.092167  	89.150643 
1376.529045  	89.149811 
1377.965923  	89.141602 
1379.402800  	89.151362 
1380.839678  	89.148571 
1382.276556  	89.145544 
1383.713434  	89.161098 
1385.150312  	89.173859 
1386.587190  	89.180213 
1388.024068  	89.163290 
1389.460946  	89.154881 
1390.897824  	89.177280 
1392.334702  	89.189891 
1393.771580  	89.201408 
1395.208458  	89.218486 
1396.645335  	89.195974 
1398.082213  	89.193364 
1399.519091  	89.216221 
1400.955969  	89.230058 
1402.392847  	89.224362 
1403.829725  	89.227846 
1405.266603  	89.265476 
1406.703481  	89.272857 
1408.140359  	89.238115 
1409.577237  	89.213567 
1411.014115  	89.193344 
1412.450993  	89.173912 
1413.887871  	89.194946 
1415.324748  	89.189519 
1416.761626  	89.140866 
1418.198504  	89.095055 
1419.635382  	89.108127 
1421.072260  	89.150695 
1422.509138  	89.118308 
1423.946016  	89.070300 
1425.382894  	89.074040 
1426.819772  	89.063243 
1428.256650  	89.039819 
1429.693528  	89.026935 
1431.130406  	89.007015 
1432.567283  	89.021866 
1434.004161  	89.014423 
1435.441039  	88.976069 
1436.877917  	88.952510 
1438.314795  	88.940512 
1439.751673  	88.923042 
1441.188551  	88.911163 
1442.625429  	88.897099 
1444.062307  	88.886249 
1445.499185  	88.862755 
1446.936063  	88.832216 
1448.372941  	88.840353 
1449.809818  	88.809035 
1451.246696  	88.758930 
1452.683574  	88.761847 
1454.120452  	88.765387 
1455.557330  	88.778052 
1456.994208  	88.799124 
1458.431086  	88.780232 
1459.867964  	88.738900 
1461.304842  	88.712625 
1462.741720  	88.704892 
1464.178598  	88.743573 
1465.615476  	88.727656 
1467.052353  	88.684511 
1468.489231  	88.671202 
1469.926109  	88.653503 
1471.362987  	88.628612 
1472.799865  	88.623096 
1474.236743  	88.643662 
1475.673621  	88.660935 
1477.110499  	88.652189 
1478.547377  	88.613323 
1479.984255  	88.576450 
1481.421133  	88.564204 
1482.858011  	88.559159 
1484.294888  	88.521419 
1485.731766  	88.475313 
1487.168644  	88.441841 
1488.605522  	88.389066 
1490.042400  	88.355631 
1491.479278  	88.371491 
1492.916156  	88.337512 
1494.353034  	88.281661 
1495.789912  	88.255475 
1497.226790  	88.244889 
1498.663668  	88.195941 
1500.100546  	88.105381 
1501.537423  	88.079031 
1502.974301  	88.064992 
1504.411179  	88.002935 
1505.848057  	87.971487 
1507.284935  	87.942012 
1508.721813  	87.861205 
1510.158691  	87.837219 
1511.595569  	87.826492 
1513.032447  	87.798652 
1514.469325  	87.737232 
1515.906203  	87.651067 
1517.343081  	87.629394 
1518.779958  	87.626226 
1520.216836  	87.520651 
1521.653714  	87.444828 
1523.090592  	87.449361 
1524.527470  	87.431983 
1525.964348  	87.415374 
1527.401226  	87.355737 
1528.838104  	87.294176 
1530.274982  	87.235205 
1531.711860  	87.153052 
1533.148738  	87.120530 
1534.585616  	87.089514 
1536.022493  	86.977152 
1537.459371  	86.899985 
1538.896249  	86.844650 
1540.333127  	86.801247 
1541.770005  	86.746084 
1543.206883  	86.652189 
1544.643761  	86.627659 
1546.080639  	86.545888 
1547.517517  	86.367419 
1548.954395  	86.263558 
1550.391273  	86.173414 
1551.828151  	86.077926 
1553.265028  	86.013332 
1554.701906  	85.920582 
1556.138784  	85.837710 
1557.575662  	85.726130 
1559.012540  	85.523251 
1560.449418  	85.544537 
1561.886296  	85.410408 
1563.323174  	85.254373 
1564.760052  	85.126340 
1566.196930  	84.955682 
1567.633808  	84.782121 
1569.070686  	84.582529 
1570.507563  	84.391226 
1571.944441  	84.261690 
1573.381319  	84.087868 
1574.818197  	83.910918 
1576.255075  	83.796972 
1577.691953  	83.506664 
1579.128831  	83.258367 
1580.565709  	83.079898 
1582.002587  	82.771976 
1583.439465  	82.498362 
1584.876343  	82.231361 
1586.313221  	81.919417 
1587.750098  	81.646748 
1589.186976  	81.269814 
1590.623854  	80.911635 
1592.060732  	80.601593 
1593.497610  	80.245611 
1594.934488  	79.884897 
1596.371366  	79.522471 
1597.808244  	79.118043 
1599.245122  	78.754486 
1600.682000  	78.306936 
1602.118878  	77.865644 
1603.555756  	77.482087 
1604.992633  	76.989836 
1606.429511  	76.501133 
1607.866389  	76.020398 
1609.303267  	75.473464 
1610.740145  	74.997716 
1612.177023  	74.486654 
1613.613901  	73.959960 
1615.050779  	73.526446 
1616.487657  	73.025233 
1617.924535  	72.528124 
1619.361413  	72.038914 
1620.798291  	71.504615 
1622.235168  	71.168151 
1623.672046  	70.847630 
1625.108924  	70.406642 
1626.545802  	70.046785 
1627.982680  	69.757694 
1629.419558  	69.510772 
1630.856436  	69.326148 
1632.293314  	69.094629 
1633.730192  	69.006772 
1635.167070  	69.031884 
1636.603948  	69.040528 
1638.040826  	69.162766 
1639.477703  	69.156778 
1640.914581  	69.215565 
1642.351459  	69.466176 
1643.788337  	69.623402 
1645.225215  	69.793120 
1646.662093  	70.081022 
1648.098971  	70.430204 
1649.535849  	70.805490 
1650.972727  	71.003025 
1652.409605  	71.284482 
1653.846483  	72.319892 
1655.283361  	72.572290 
1656.720239  	72.725008 
1658.157116  	73.164888 
1659.593994  	73.531223 
1661.030872  	73.933479 
1662.467750  	74.470503 
1663.904628  	75.014498 
1665.341506  	75.512405 
1666.778384  	75.826493 
1668.215262  	76.207878 
1669.652140  	76.944116 
1671.089018  	77.473696 
1672.525896  	77.809079 
1673.962774  	78.245423 
1675.399651  	78.781562 
1676.836529  	79.325205 
1678.273407  	79.593984 
1679.710285  	80.013215 
1681.147163  	80.572910 
1682.584041  	80.964445 
1684.020919  	81.376947 
1685.457797  	82.100614 
1686.894675  	82.480148 
1688.331553  	82.862412 
1689.768431  	83.338375 
1691.205309  	83.794687 
1692.642186  	84.216432 
1694.079064  	84.487899 
1695.515942  	84.821230 
1696.952820  	85.342059 
1698.389698  	85.622261 
1699.826576  	85.986218 
1701.263454  	86.552605 
1702.700332  	86.790854 
1704.137210  	87.075276 
1705.574088  	87.419506 
1707.010966  	87.752439 
1708.447844  	88.126262 
1709.884721  	88.416578 
1711.321599  	88.708653 
1712.758477  	88.968459 
1714.195355  	89.168121 
1715.632233  	89.446254 
1717.069111  	89.734972 
1718.505989  	89.971815 
1719.942867  	90.269336 
1721.379745  	90.457687 
1722.816623  	90.630769 
1724.253501  	90.849683 
1725.690379  	91.011900 
1727.127256  	91.200420 
1728.564134  	91.385941 
1730.001012  	91.561404 
1731.437890  	91.760494 
1732.874768  	91.885026 
1734.311646  	92.013758 
1735.748524  	92.208508 
1737.185402  	92.299804 
1738.622280  	92.448452 
1740.059158  	92.638578 
1741.496036  	92.744432 
1742.932914  	92.850092 
1744.369791  	92.954245 
1745.806669  	93.074241 
1747.243547  	93.227368 
1748.680425  	93.307235 
1750.117303  	93.444988 
1751.554181  	93.615678 
1752.991059  	93.725601 
1754.427937  	93.874699 
1755.864815  	93.944042 
1757.301693  	93.970684 
1758.738571  	94.067655 
1760.175449  	94.124137 
1761.612326  	94.161160 
1763.049204  	94.260931 
1764.486082  	94.311863 
1765.922960  	94.369624 
1767.359838  	94.423718 
1768.796716  	94.468573 
1770.233594  	94.544695 
1771.670472  	94.606387 
1773.107350  	94.681758 
1774.544228  	94.712098 
1775.981106  	94.723622 
1777.417984  	94.806772 
1778.854861  	94.878401 
1780.291739  	94.900018 
1781.728617  	94.960719 
1783.165495  	95.003778 
1784.602373  	95.040929 
1786.039251  	95.099117 
1787.476129  	95.126555 
1788.913007  	95.196899 
1790.349885  	95.242504 
1791.786763  	95.233481 
1793.223641  	95.374196 
1794.660519  	95.409342 
1796.097396  	95.391675 
1797.534274  	95.457881 
1798.971152  	95.434340 
1800.408030  	95.399005 
1801.844908  	95.398959 
1803.281786  	95.421568 
1804.718664  	95.530015 
1806.155542  	95.563639 
1807.592420  	95.574717 
1809.029298  	95.636270 
1810.466176  	95.651574 
1811.903054  	95.680374 
1813.339931  	95.726368 
1814.776809  	95.734933 
1816.213687  	95.777914 
1817.650565  	95.783291 
1819.087443  	95.779072 
1820.524321  	95.805921 
1821.961199  	95.778814 
1823.398077  	95.751429 
1824.834955  	95.777527 
1826.271833  	95.795404 
1827.708711  	95.846224 
1829.145589  	95.847360 
1830.582466  	95.828131 
1832.019344  	95.878544 
1833.456222  	95.870283 
1834.893100  	95.878587 
1836.329978  	95.926981 
1837.766856  	95.926325 
1839.203734  	95.962480 
1840.640612  	95.962915 
1842.077490  	95.939246 
1843.514368  	95.955830 
1844.951246  	95.943948 
1846.388124  	95.979721 
1847.825001  	96.032464 
1849.261879  	95.995817 
1850.698757  	96.010967 
1852.135635  	96.062250 
1853.572513  	96.012094 
1855.009391  	96.032765 
1856.446269  	95.974601 
1857.883147  	95.960709 
1859.320025  	96.057826 
1860.756903  	95.983293 
1862.193781  	95.961288 
1863.630659  	96.049447 
1865.067536  	96.050097 
1866.504414  	96.091788 
1867.941292  	96.111532 
1869.378170  	96.089514 
1870.815048  	96.086008 
1872.251926  	96.005231 
1873.688804  	96.017709 
1875.125682  	96.052532 
1876.562560  	96.013086 
1877.999438  	96.056364 
1879.436316  	96.099706 
1880.873194  	96.095894 
1882.310072  	96.086948 
1883.746949  	96.065444 
1885.183827  	96.089057 
1886.620705  	96.101644 
1888.057583  	96.096694 
1889.494461  	96.146299 
1890.931339  	96.115163 
1892.368217  	96.043533 
1893.805095  	96.076381 
1895.241973  	96.103300 
1896.678851  	96.110663 
1898.115729  	96.112953 
1899.552607  	96.094478 
1900.989484  	96.136519 
1902.426362  	96.144061 
1903.863240  	96.143616 
1905.300118  	96.144572 
1906.736996  	96.099535 
1908.173874  	96.112920 
1909.610752  	96.147509 
1911.047630  	96.098157 
1912.484508  	96.117199 
1913.921386  	96.170040 
1915.358264  	96.172066 
1916.795142  	96.221201 
1918.232019  	96.156177 
1919.668897  	96.039681 
1921.105775  	96.021155 
1922.542653  	96.052321 
1923.979531  	96.129216 
1925.416409  	96.164636 
1926.853287  	96.151634 
1928.290165  	96.234926 
1929.727043  	96.148745 
1931.163921  	96.106519 
1932.600799  	96.150376 
1934.037677  	95.995296 
1935.474554  	96.001483 
1936.911432  	96.125513 
1938.348310  	96.128655 
1939.785188  	96.179343 
1941.222066  	96.045245 
1942.658944  	95.913040 
1944.095822  	96.022337 
1945.532700  	96.036040 
1946.969578  	96.100141 
1948.406456  	96.136511 
1949.843334  	96.000928 
1951.280212  	96.022846 
1952.717089  	96.092397 
1954.153967  	96.113045 
1955.590845  	96.146223 
1957.027723  	96.079842 
1958.464601  	96.081091 
1959.901479  	96.111466 
1961.338357  	95.996077 
1962.775235  	95.917076 
1964.212113  	95.855575 
1965.648991  	95.879414 
1967.085869  	95.978245 
1968.522747  	95.878956 
1969.959624  	95.848353 
1971.396502  	95.899193 
1972.833380  	95.940348 
1974.270258  	96.029051 
1975.707136  	95.813333 
1977.144014  	95.718494 
1978.580892  	95.902239 
1980.017770  	95.822058 
1981.454648  	95.819405 
1982.891526  	95.783613 
1984.328404  	95.538235 
1985.765282  	95.495393 
1987.202159  	95.454132 
1988.639037  	95.463689 
1990.075915  	95.522208 
1991.512793  	95.697138 
1992.949671  	95.692178 
1994.386549  	95.731980 
1995.823427  	95.642881 
1997.260305  	95.743311 
1998.697183  	95.469500 
2000.134061  	95.061900 
2001.570939  	95.344279 
2003.007817  	95.296152 
2004.444694  	95.121405 
2005.881572  	95.446135 
2007.318450  	95.450072 
2008.755328  	95.606220 
2010.192206  	95.819152 
2011.629084  	95.611614 
2013.065962  	95.850659 
2014.502840  	96.033438 
2015.939718  	95.765904 
2017.376596  	95.508705 
2018.813474  	95.215636 
2020.250352  	95.275753 
2021.687229  	95.433173 
2023.124107  	95.432554 
2024.560985  	95.676661 
2025.997863  	95.430596 
2027.434741  	94.886736 
2028.871619  	94.746771 
2030.308497  	94.605083 
2031.745375  	94.685244 
2033.182253  	94.844839 
2034.619131  	94.779453 
2036.056009  	94.983918 
2037.492887  	94.868763 
2038.929764  	94.543294 
2040.366642  	94.760318 
2041.803520  	94.963704 
2043.240398  	94.962267 
2044.677276  	94.920312 
2046.114154  	94.859892 
2047.551032  	95.049449 
2048.987910  	95.105428 
2050.424788  	94.996770 
2051.861666  	94.967788 
2053.298544  	94.812120 
2054.735422  	94.758276 
2056.172299  	94.715141 
2057.609177  	94.514570 
2059.046055  	94.552819 
2060.482933  	94.585215 
2061.919811  	94.557142 
2063.356689  	94.787500 
2064.793567  	94.834436 
2066.230445  	94.727899 
2067.667323  	94.739189 
2069.104201  	94.630033 
2070.541079  	94.571357 
2071.977957  	94.637185 
2073.414834  	94.666647 
2074.851712  	94.654813 
2076.288590  	94.527833 
2077.725468  	94.556163 
2079.162346  	94.771923 
2080.599224  	94.778718 
2082.036102  	94.686846 
2083.472980  	94.617454 
2084.909858  	94.570412 
2086.346736  	94.570670 
2087.783614  	94.416916 
2089.220492  	94.286003 
2090.657369  	94.367973 
2092.094247  	94.426717 
2093.531125  	94.473405 
2094.968003  	94.501630 
2096.404881  	94.456205 
2097.841759  	94.475630 
2099.278637  	94.468582 
2100.715515  	94.454110 
2102.152393  	94.459033 
2103.589271  	94.416246 
2105.026149  	94.511292 
2106.463027  	94.574183 
2107.899904  	94.460778 
2109.336782  	94.469738 
2110.773660  	94.503425 
2112.210538  	94.465560 
2113.647416  	94.495314 
2115.084294  	94.539332 
2116.521172  	94.587375 
2117.958050  	94.581060 
2119.394928  	94.603730 
2120.831806  	94.735952 
2122.268684  	94.710723 
2123.705562  	94.711272 
2125.142440  	94.798077 
2126.579317  	94.642547 
2128.016195  	94.667007 
2129.453073  	94.866649 
2130.889951  	94.817374 
2132.326829  	94.927588 
2133.763707  	94.990845 
2135.200585  	94.769075 
2136.637463  	94.885735 
2138.074341  	95.033607 
2139.511219  	95.010006 
2140.948097  	95.150669 
2142.384975  	95.196426 
2143.821852  	95.264027 
2145.258730  	95.483790 
2146.695608  	95.698381 
2148.132486  	95.788628 
2149.569364  	95.409702 
2151.006242  	95.217881 
2152.443120  	95.557890 
2153.879998  	95.701568 
2155.316876  	95.899653 
2156.753754  	96.088706 
2158.190632  	95.821732 
2159.627510  	95.558832 
2161.064387  	95.228206 
2162.501265  	95.201635 
2163.938143  	95.434228 
2165.375021  	95.283155 
2166.811899  	95.375985 
2168.248777  	95.616223 
2169.685655  	95.455537 
2171.122533  	95.357990 
2172.559411  	95.235441 
2173.996289  	95.030325 
2175.433167  	94.900588 
2176.870045  	94.920650 
2178.306922  	95.482596 
2179.743800  	95.854929 
2181.180678  	95.603310 
2182.617556  	95.651767 
2184.054434  	95.554748 
2185.491312  	95.198393 
2186.928190  	95.282746 
2188.365068  	95.319243 
2189.801946  	95.274515 
2191.238824  	95.329252 
2192.675702  	95.233516 
2194.112580  	95.288525 
2195.549457  	95.296621 
2196.986335  	95.185480 
2198.423213  	95.277904 
2199.860091  	95.139874 
2201.296969  	95.051231 
2202.733847  	95.390277 
2204.170725  	95.442520 
2205.607603  	95.186920 
2207.044481  	95.004389 
2208.481359  	94.981965 
2209.918237  	95.252688 
2211.355115  	95.494478 
2212.791992  	95.526271 
2214.228870  	95.476720 
2215.665748  	95.357260 
2217.102626  	95.403599 
2218.539504  	95.505380 
2219.976382  	95.463277 
2221.413260  	95.438825 
2222.850138  	95.375513 
2224.287016  	95.396270 
2225.723894  	95.477899 
2227.160772  	95.354127 
2228.597650  	95.329796 
2230.034527  	95.366891 
2231.471405  	95.264881 
2232.908283  	95.430294 
2234.345161  	95.696825 
2235.782039  	95.703359 
2237.218917  	95.669077 
2238.655795  	95.650370 
2240.092673  	95.641020 
2241.529551  	95.663213 
2242.966429  	95.708360 
2244.403307  	95.831464 
2245.840185  	95.896702 
2247.277062  	95.921606 
2248.713940  	95.958587 
2250.150818  	95.860591 
2251.587696  	95.850854 
2253.024574  	95.897591 
2254.461452  	95.861435 
2255.898330  	95.814185 
2257.335208  	95.830540 
2258.772086  	95.866828 
2260.208964  	95.889212 
2261.645842  	95.827232 
2263.082720  	95.797519 
2264.519597  	95.823226 
2265.956475  	95.793932 
2267.393353  	95.781511 
2268.830231  	95.847779 
2270.267109  	95.903539 
2271.703987  	95.895037 
2273.140865  	95.820545 
2274.577743  	95.784737 
2276.014621  	95.798663 
2277.451499  	95.810516 
2278.888377  	95.830361 
2280.325255  	95.860976 
2281.762132  	95.908114 
2283.199010  	95.942118 
2284.635888  	95.944088 
2286.072766  	95.937085 
2287.509644  	95.907536 
2288.946522  	95.904261 
2290.383400  	95.973988 
2291.820278  	95.988009 
2293.257156  	95.946797 
2294.694034  	95.945816 
2296.130912  	95.928200 
2297.567790  	95.941794 
2299.004667  	95.964799 
2300.441545  	96.008368 
2301.878423  	96.061463 
2303.315301  	96.073939 
2304.752179  	96.000182 
2306.189057  	95.960282 
2307.625935  	95.964425 
2309.062813  	96.034496 
2310.499691  	96.075955 
2311.936569  	95.987374 
2313.373447  	95.953551 
2314.810325  	95.988140 
2316.247202  	95.997929 
2317.684080  	96.002096 
2319.120958  	95.939560 
2320.557836  	95.948316 
2321.994714  	96.072281 
2323.431592  	96.067746 
2324.868470  	96.034375 
2326.305348  	96.069766 
2327.742226  	96.098974 
2329.179104  	96.187427 
2330.615982  	96.243093 
2332.052860  	96.209879 
2333.489737  	96.244197 
2334.926615  	96.350413 
2336.363493  	96.479456 
2337.800371  	96.466965 
2339.237249  	96.300707 
2340.674127  	96.313956 
2342.111005  	96.408857 
2343.547883  	96.336365 
2344.984761  	96.275388 
2346.421639  	96.309865 
2347.858517  	96.362411 
2349.295395  	96.360081 
2350.732273  	96.339564 
2352.169150  	96.362151 
2353.606028  	96.347009 
2355.042906  	96.265973 
2356.479784  	96.282641 
2357.916662  	96.321121 
2359.353540  	96.254762 
2360.790418  	96.226694 
2362.227296  	96.285122 
2363.664174  	96.351200 
2365.101052  	96.374415 
2366.537930  	96.355206 
2367.974808  	96.415476 
2369.411685  	96.472485 
2370.848563  	96.467948 
2372.285441  	96.493456 
2373.722319  	96.561483 
2375.159197  	96.593209 
2376.596075  	96.614358 
2378.032953  	96.622688 
2379.469831  	96.638402 
2380.906709  	96.653035 
2382.343587  	96.672529 
2383.780465  	96.686834 
2385.217343  	96.699197 
2386.654220  	96.734577 
2388.091098  	96.774494 
2389.527976  	96.788291 
2390.964854  	96.814395 
2392.401732  	96.842098 
2393.838610  	96.851257 
2395.275488  	96.840847 
2396.712366  	96.820791 
2398.149244  	96.853420 
2399.586122  	96.912548 
2401.023000  	96.939832 
2402.459878  	96.965143 
2403.896755  	97.003438 
2405.333633  	97.068173 
2406.770511  	97.112928 
2408.207389  	97.106941 
2409.644267  	97.167210 
2411.081145  	97.234591 
2412.518023  	97.188847 
2413.954901  	97.151595 
2415.391779  	97.169640 
2416.828657  	97.188122 
2418.265535  	97.198931 
2419.702413  	97.181538 
2421.139290  	97.179112 
2422.576168  	97.198759 
2424.013046  	97.206068 
2425.449924  	97.223498 
2426.886802  	97.219113 
2428.323680  	97.224061 
2429.760558  	97.277220 
2431.197436  	97.286906 
2432.634314  	97.268800 
2434.071192  	97.247407 
2435.508070  	97.194958 
2436.944948  	97.201298 
2438.381825  	97.262834 
2439.818703  	97.279899 
2441.255581  	97.241524 
2442.692459  	97.208340 
2444.129337  	97.248620 
2445.566215  	97.281478 
2447.003093  	97.265676 
2448.439971  	97.287507 
2449.876849  	97.273182 
2451.313727  	97.238777 
2452.750605  	97.290247 
2454.187483  	97.317985 
2455.624360  	97.322864 
2457.061238  	97.363818 
2458.498116  	97.354543 
2459.934994  	97.327920 
2461.371872  	97.325967 
2462.808750  	97.324418 
2464.245628  	97.324207 
2465.682506  	97.314537 
2467.119384  	97.341065 
2468.556262  	97.361870 
2469.993140  	97.349018 
2471.430018  	97.404115 
2472.866895  	97.398441 
2474.303773  	97.327257 
2475.740651  	97.413255 
2477.177529  	97.485627 
2478.614407  	97.444820 
2480.051285  	97.478684 
2481.488163  	97.513593 
2482.925041  	97.494998 
2484.361919  	97.464247 
2485.798797  	97.408244 
2487.235675  	97.450041 
2488.672553  	97.550701 
2490.109430  	97.546448 
2491.546308  	97.519694 
2492.983186  	97.540232 
2494.420064  	97.537351 
2495.856942  	97.477061 
2497.293820  	97.440114 
2498.730698  	97.512176 
2500.167576  	97.613432 
2501.604454  	97.663357 
2503.041332  	97.649825 
2504.478210  	97.584180 
2505.915088  	97.579391 
2507.351965  	97.620384 
2508.788843  	97.637047 
2510.225721  	97.671333 
2511.662599  	97.642889 
2513.099477  	97.580158 
2514.536355  	97.600561 
2515.973233  	97.591894 
2517.410111  	97.583736 
2518.846989  	97.646868 
2520.283867  	97.647986 
2521.720745  	97.621915 
2523.157623  	97.612196 
2524.594500  	97.593999 
2526.031378  	97.634593 
2527.468256  	97.633432 
2528.905134  	97.562189 
2530.342012  	97.586915 
2531.778890  	97.668537 
2533.215768  	97.729679 
2534.652646  	97.757814 
2536.089524  	97.688148 
2537.526402  	97.614833 
2538.963280  	97.661250 
2540.400158  	97.728517 
2541.837035  	97.706620 
2543.273913  	97.668067 
2544.710791  	97.686667 
2546.147669  	97.705349 
2547.584547  	97.724272 
2549.021425  	97.760124 
2550.458303  	97.752409 
2551.895181  	97.746143 
2553.332059  	97.754101 
2554.768937  	97.721774 
2556.205815  	97.717210 
2557.642693  	97.742136 
2559.079570  	97.747735 
2560.516448  	97.728375 
2561.953326  	97.663861 
2563.390204  	97.672817 
2564.827082  	97.766551 
2566.263960  	97.767261 
2567.700838  	97.718236 
2569.137716  	97.683071 
2570.574594  	97.645411 
2572.011472  	97.674034 
2573.448350  	97.691167 
2574.885228  	97.648460 
2576.322105  	97.653216 
2577.758983  	97.683641 
2579.195861  	97.695573 
2580.632739  	97.675372 
2582.069617  	97.637558 
2583.506495  	97.662644 
2584.943373  	97.685102 
2586.380251  	97.655257 
2587.817129  	97.654319 
2589.254007  	97.673165 
2590.690885  	97.701150 
2592.127763  	97.707170 
2593.564641  	97.666089 
2595.001518  	97.672854 
2596.438396  	97.680110 
2597.875274  	97.642781 
2599.312152  	97.661169 
2600.749030  	97.674337 
2602.185908  	97.662596 
2603.622786  	97.705515 
2605.059664  	97.717176 
2606.496542  	97.668677 
2607.933420  	97.617741 
2609.370298  	97.582117 
2610.807176  	97.598347 
2612.244053  	97.617452 
2613.680931  	97.608635 
2615.117809  	97.632473 
2616.554687  	97.638450 
2617.991565  	97.597261 
2619.428443  	97.586050 
2620.865321  	97.589817 
2622.302199  	97.563785 
2623.739077  	97.561339 
2625.175955  	97.597891 
2626.612833  	97.588955 
2628.049711  	97.548792 
2629.486588  	97.554688 
2630.923466  	97.555451 
2632.360344  	97.553727 
2633.797222  	97.590247 
2635.234100  	97.562785 
2636.670978  	97.495733 
2638.107856  	97.500593 
2639.544734  	97.522684 
2640.981612  	97.536966 
2642.418490  	97.546451 
2643.855368  	97.513956 
2645.292246  	97.500491 
2646.729123  	97.520287 
2648.166001  	97.520356 
2649.602879  	97.527311 
2651.039757  	97.536226 
2652.476635  	97.522682 
2653.913513  	97.520322 
2655.350391  	97.523057 
2656.787269  	97.500323 
2658.224147  	97.486658 
2659.661025  	97.519830 
2661.097903  	97.537422 
2662.534781  	97.501266 
2663.971658  	97.500966 
2665.408536  	97.537450 
2666.845414  	97.532898 
2668.282292  	97.531688 
2669.719170  	97.549595 
2671.156048  	97.535935 
2672.592926  	97.518485 
2674.029804  	97.513390 
2675.466682  	97.511813 
2676.903560  	97.531335 
2678.340438  	97.547767 
2679.777316  	97.535321 
2681.214193  	97.525760 
2682.651071  	97.546687 
2684.087949  	97.556733 
2685.524827  	97.519835 
2686.961705  	97.495403 
2688.398583  	97.509112 
2689.835461  	97.513257 
2691.272339  	97.506953 
2692.709217  	97.491718 
2694.146095  	97.473523 
2695.582973  	97.485118 
2697.019851  	97.492802 
2698.456728  	97.471516 
2699.893606  	97.451403 
2701.330484  	97.434513 
2702.767362  	97.417749 
2704.204240  	97.395659 
2705.641118  	97.370626 
2707.077996  	97.368715 
2708.514874  	97.378210 
2709.951752  	97.375382 
2711.388630  	97.349051 
2712.825508  	97.314396 
2714.262386  	97.320623 
2715.699263  	97.334028 
2717.136141  	97.315341 
2718.573019  	97.321991 
2720.009897  	97.337144 
2721.446775  	97.314836 
2722.883653  	97.298496 
2724.320531  	97.297998 
2725.757409  	97.290508 
2727.194287  	97.269867 
2728.631165  	97.235113 
2730.068043  	97.214478 
2731.504921  	97.215911 
2732.941798  	97.225045 
2734.378676  	97.235656 
2735.815554  	97.230024 
2737.252432  	97.214692 
2738.689310  	97.198260 
2740.126188  	97.178588 
2741.563066  	97.172930 
2742.999944  	97.159991 
2744.436822  	97.125651 
2745.873700  	97.104170 
2747.310578  	97.098214 
2748.747456  	97.097828 
2750.184333  	97.086613 
2751.621211  	97.058561 
2753.058089  	97.057863 
2754.494967  	97.070371 
2755.931845  	97.056160 
2757.368723  	97.039732 
2758.805601  	97.021350 
2760.242479  	97.004180 
2761.679357  	96.999522 
2763.116235  	96.975527 
2764.553113  	96.961983 
2765.989991  	96.980422 
2767.426868  	96.957666 
2768.863746  	96.902895 
2770.300624  	96.889212 
2771.737502  	96.882141 
2773.174380  	96.828065 
2774.611258  	96.787372 
2776.048136  	96.811121 
2777.485014  	96.821976 
2778.921892  	96.779249 
2780.358770  	96.753133 
2781.795648  	96.755492 
2783.232526  	96.744104 
2784.669403  	96.713169 
2786.106281  	96.676534 
2787.543159  	96.662275 
2788.980037  	96.660341 
2790.416915  	96.625161 
2791.853793  	96.572578 
2793.290671  	96.544824 
2794.727549  	96.538683 
2796.164427  	96.525387 
2797.601305  	96.491829 
2799.038183  	96.455403 
2800.475061  	96.432812 
2801.911938  	96.420824 
2803.348816  	96.400276 
2804.785694  	96.369865 
2806.222572  	96.357456 
2807.659450  	96.341841 
2809.096328  	96.303048 
2810.533206  	96.280928 
2811.970084  	96.254173 
2813.406962  	96.205794 
2814.843840  	96.188148 
2816.280718  	96.179367 
2817.717596  	96.155021 
2819.154474  	96.141485 
2820.591351  	96.120674 
2822.028229  	96.095439 
2823.465107  	96.066891 
2824.901985  	96.016159 
2826.338863  	95.981744 
2827.775741  	95.957042 
2829.212619  	95.927462 
2830.649497  	95.928383 
2832.086375  	95.905468 
2833.523253  	95.852248 
2834.960131  	95.848529 
2836.397009  	95.825481 
2837.833886  	95.729713 
2839.270764  	95.652906 
2840.707642  	95.617988 
2842.144520  	95.600553 
2843.581398  	95.601486 
2845.018276  	95.578803 
2846.455154  	95.519607 
2847.892032  	95.464348 
2849.328910  	95.418678 
2850.765788  	95.372619 
2852.202666  	95.332075 
2853.639544  	95.298869 
2855.076421  	95.271600 
2856.513299  	95.231598 
2857.950177  	95.167955 
2859.387055  	95.125889 
2860.823933  	95.118979 
2862.260811  	95.085056 
2863.697689  	95.013232 
2865.134567  	94.941234 
2866.571445  	94.872128 
2868.008323  	94.819369 
2869.445201  	94.802218 
2870.882079  	94.802978 
2872.318956  	94.788278 
2873.755834  	94.737450 
2875.192712  	94.673835 
2876.629590  	94.617314 
2878.066468  	94.556031 
2879.503346  	94.512575 
2880.940224  	94.476256 
2882.377102  	94.407631 
2883.813980  	94.358641 
2885.250858  	94.333861 
2886.687736  	94.253392 
2888.124614  	94.159330 
2889.561491  	94.134688 
2890.998369  	94.131971 
2892.435247  	94.071702 
2893.872125  	93.979973 
2895.309003  	93.934399 
2896.745881  	93.901456 
2898.182759  	93.824251 
2899.619637  	93.774265 
2901.056515  	93.750539 
2902.493393  	93.658356 
2903.930271  	93.552341 
2905.367149  	93.497329 
2906.804026  	93.435256 
2908.240904  	93.360557 
2909.677782  	93.305184 
2911.114660  	93.249890 
2912.551538  	93.168284 
2913.988416  	93.051803 
2915.425294  	92.944381 
2916.862172  	92.877366 
2918.299050  	92.805409 
2919.735928  	92.723802 
2921.172806  	92.643675 
2922.609684  	92.537853 
2924.046561  	92.441673 
2925.483439  	92.372767 
2926.920317  	92.292115 
2928.357195  	92.212800 
2929.794073  	92.141731 
2931.230951  	92.079796 
2932.667829  	92.030001 
2934.104707  	91.943332 
2935.541585  	91.845106 
2936.978463  	91.777853 
2938.415341  	91.692921 
2939.852219  	91.612521 
2941.289096  	91.559979 
2942.725974  	91.479914 
2944.162852  	91.376994 
2945.599730  	91.254917 
2947.036608  	91.128868 
2948.473486  	91.051112 
2949.910364  	90.981851 
2951.347242  	90.906094 
2952.784120  	90.828951 
2954.220998  	90.696179 
2955.657876  	90.565026 
2957.094754  	90.461091 
2958.531631  	90.320935 
2959.968509  	90.213136 
2961.405387  	90.140261 
2962.842265  	90.032242 
2964.279143  	89.940426 
2965.716021  	89.842811 
2967.152899  	89.716544 
2968.589777  	89.632312 
2970.026655  	89.534554 
2971.463533  	89.384162 
2972.900411  	89.253760 
2974.337289  	89.144666 
2975.774166  	89.035066 
2977.211044  	88.923325 
2978.647922  	88.808675 
2980.084800  	88.691869 
2981.521678  	88.528969 
2982.958556  	88.350909 
2984.395434  	88.245030 
2985.832312  	88.153123 
2987.269190  	88.011696 
2988.706068  	87.875556 
2990.142946  	87.750540 
2991.579824  	87.612410 
2993.016701  	87.484319 
2994.453579  	87.342803 
2995.890457  	87.170463 
2997.327335  	87.030252 
2998.764213  	86.923054 
3000.201091  	86.783547 
3001.637969  	86.614304 
3003.074847  	86.432424 
3004.511725  	86.241449 
3005.948603  	86.088337 
3007.385481  	85.974188 
3008.822359  	85.821925 
3010.259236  	85.619573 
3011.696114  	85.445858 
3013.132992  	85.302304 
3014.569870  	85.126647 
3016.006748  	84.953402 
3017.443626  	84.785947 
3018.880504  	84.578838 
3020.317382  	84.401280 
3021.754260  	84.232600 
3023.191138  	84.002900 
3024.628016  	83.810621 
3026.064894  	83.629839 
3027.501771  	83.397001 
3028.938649  	83.236643 
3030.375527  	83.103583 
3031.812405  	82.893100 
3033.249283  	82.685577 
3034.686161  	82.487744 
3036.123039  	82.271989 
3037.559917  	82.045153 
3038.996795  	81.789881 
3040.433673  	81.566076 
3041.870551  	81.370770 
3043.307429  	81.128643 
3044.744306  	80.878668 
3046.181184  	80.657191 
3047.618062  	80.443626 
3049.054940  	80.238581 
3050.491818  	80.048004 
3051.928696  	79.827368 
3053.365574  	79.538179 
3054.802452  	79.285132 
3056.239330  	79.096498 
3057.676208  	78.865770 
3059.113086  	78.642113 
3060.549964  	78.415661 
3061.986842  	78.117755 
3063.423719  	77.861108 
3064.860597  	77.621789 
3066.297475  	77.341400 
3067.734353  	77.105905 
3069.171231  	76.873005 
3070.608109  	76.635625 
3072.044987  	76.393478 
3073.481865  	76.066956 
3074.918743  	75.763582 
3076.355621  	75.519760 
3077.792499  	75.251378 
3079.229377  	74.970694 
3080.666254  	74.650398 
3082.103132  	74.361174 
3083.540010  	74.139089 
3084.976888  	73.865996 
3086.413766  	73.597532 
3087.850644  	73.322499 
3089.287522  	72.997173 
3090.724400  	72.735106 
3092.161278  	72.433301 
3093.598156  	72.081736 
3095.035034  	71.828360 
3096.471912  	71.561131 
3097.908789  	71.265204 
3099.345667  	70.985060 
3100.782545  	70.654596 
3102.219423  	70.323034 
3103.656301  	69.984843 
3105.093179  	69.696872 
3106.530057  	69.482659 
3107.966935  	69.153690 
3109.403813  	68.822075 
3110.840691  	68.579985 
3112.277569  	68.256842 
3113.714447  	67.916394 
3115.151324  	67.582033 
3116.588202  	67.256873 
3118.025080  	67.028988 
3119.461958  	66.754617 
3120.898836  	66.424725 
3122.335714  	66.071647 
3123.772592  	65.652948 
3125.209470  	65.350275 
3126.646348  	65.067912 
3128.083226  	64.689238 
3129.520104  	64.418462 
3130.956982  	64.156111 
3132.393859  	63.838765 
3133.830737  	63.563213 
3135.267615  	63.237937 
3136.704493  	62.910361 
3138.141371  	62.578085 
3139.578249  	62.238266 
3141.015127  	62.007876 
3142.452005  	61.720222 
3143.888883  	61.387432 
3145.325761  	61.115198 
3146.762639  	60.740689 
3148.199517  	60.384212 
3149.636394  	60.100370 
3151.073272  	59.789109 
3152.510150  	59.567842 
3153.947028  	59.301910 
3155.383906  	58.957037 
3156.820784  	58.693413 
3158.257662  	58.377409 
3159.694540  	58.048710 
3161.131418  	57.772632 
3162.568296  	57.478614 
3164.005174  	57.247762 
3165.442052  	56.967395 
3166.878929  	56.634106 
3168.315807  	56.386740 
3169.752685  	56.104489 
3171.189563  	55.829385 
3172.626441  	55.571844 
3174.063319  	55.277851 
3175.500197  	55.058860 
3176.937075  	54.770327 
3178.373953  	54.463909 
3179.810831  	54.283005 
3181.247709  	54.009689 
3182.684587  	53.780385 
3184.121464  	53.637323 
3185.558342  	53.356078 
3186.995220  	53.112677 
3188.432098  	52.881043 
3189.868976  	52.603499 
3191.305854  	52.418664 
3192.742732  	52.202175 
3194.179610  	52.028053 
3195.616488  	51.878082 
3197.053366  	51.611450 
3198.490244  	51.409289 
3199.927122  	51.142479 
3201.363999  	50.878549 
3202.800877  	50.838779 
3204.237755  	50.656383 
3205.674633  	50.432704 
3207.111511  	50.333404 
3208.548389  	50.095430 
3209.985267  	49.951439 
3211.422145  	49.851701 
3212.859023  	49.633416 
3214.295901  	49.543328 
3215.732779  	49.382441 
3217.169657  	49.208005 
3218.606534  	49.181583 
3220.043412  	49.019325 
3221.480290  	48.903865 
3222.917168  	48.804875 
3224.354046  	48.564328 
3225.790924  	48.532547 
3227.227802  	48.541993 
3228.664680  	48.472020 
3230.101558  	48.446743 
3231.538436  	48.249396 
3232.975314  	48.123395 
3234.412192  	48.138552 
3235.849069  	48.011245 
3237.285947  	47.909534 
3238.722825  	47.794827 
3240.159703  	47.702029 
3241.596581  	47.730318 
3243.033459  	47.643417 
3244.470337  	47.636021 
3245.907215  	47.649612 
3247.344093  	47.461129 
3248.780971  	47.415414 
3250.217849  	47.392112 
3251.654727  	47.340769 
3253.091604  	47.441412 
3254.528482  	47.361776 
3255.965360  	47.275134 
3257.402238  	47.335729 
3258.839116  	47.272986 
3260.275994  	47.270408 
3261.712872  	47.237337 
3263.149750  	47.136171 
3264.586628  	47.194900 
3266.023506  	47.174048 
3267.460384  	47.177724 
3268.897262  	47.227252 
3270.334139  	47.079352 
3271.771017  	47.080209 
3273.207895  	47.148364 
3274.644773  	47.091933 
3276.081651  	47.153642 
3277.518529  	47.155030 
3278.955407  	47.166907 
3280.392285  	47.262909 
3281.829163  	47.212285 
3283.266041  	47.260407 
3284.702919  	47.277362 
3286.139797  	47.125791 
3287.576674  	47.147788 
3289.013552  	47.121211 
3290.450430  	47.069259 
3291.887308  	47.180865 
3293.324186  	47.149842 
3294.761064  	47.140553 
3296.197942  	47.206189 
3297.634820  	47.172530 
3299.071698  	47.223685 
3300.508576  	47.218701 
3301.945454  	47.175578 
3303.382332  	47.207387 
3304.819210  	47.110350 
3306.256087  	47.112201 
3307.692965  	47.174626 
3309.129843  	47.086312 
3310.566721  	47.134106 
3312.003599  	47.202318 
3313.440477  	47.225481 
3314.877355  	47.309366 
3316.314233  	47.241881 
3317.751111  	47.225977 
3319.187989  	47.273999 
3320.624867  	47.176088 
3322.061745  	47.190053 
3323.498622  	47.212535 
3324.935500  	47.203547 
3326.372378  	47.332683 
3327.809256  	47.333366 
3329.246134  	47.302163 
3330.683012  	47.335232 
3332.119890  	47.277438 
3333.556768  	47.312637 
3334.993646  	47.348298 
3336.430524  	47.361327 
3337.867402  	47.473618 
3339.304280  	47.460750 
3340.741157  	47.480741 
3342.178035  	47.530516 
3343.614913  	47.423660 
3345.051791  	47.496006 
3346.488669  	47.610677 
3347.925547  	47.607480 
3349.362425  	47.708137 
3350.799303  	47.716597 
3352.236181  	47.730419 
3353.673059  	47.829222 
3355.109937  	47.786229 
3356.546815  	47.831572 
3357.983692  	47.899177 
3359.420570  	47.901680 
3360.857448  	48.038762 
3362.294326  	48.071719 
3363.731204  	48.124868 
3365.168082  	48.287479 
3366.604960  	48.229638 
3368.041838  	48.227045 
3369.478716  	48.338756 
3370.915594  	48.398049 
3372.352472  	48.556730 
3373.789350  	48.657403 
3375.226227  	48.799563 
3376.663105  	48.978089 
3378.099983  	48.909250 
3379.536861  	48.981967 
3380.973739  	49.178476 
3382.410617  	49.279905 
3383.847495  	49.544356 
3385.284373  	49.661086 
3386.721251  	49.653754 
3388.158129  	49.812831 
3389.595007  	49.821436 
3391.031885  	49.930707 
3392.468762  	50.233857 
3393.905640  	50.370284 
3395.342518  	50.575081 
3396.779396  	50.752110 
3398.216274  	50.784909 
3399.653152  	50.913396 
3401.090030  	50.988888 
3402.526908  	51.154739 
3403.963786  	51.436610 
3405.400664  	51.553218 
3406.837542  	51.730410 
3408.274420  	51.915820 
3409.711297  	52.031438 
3411.148175  	52.253592 
3412.585053  	52.395093 
3414.021931  	52.613292 
3415.458809  	52.925701 
3416.895687  	52.997193 
3418.332565  	53.136606 
3419.769443  	53.400707 
3421.206321  	53.590712 
3422.643199  	53.848755 
3424.080077  	54.016659 
3425.516955  	54.133964 
3426.953832  	54.366231 
3428.390710  	54.574299 
3429.827588  	54.819745 
3431.264466  	55.022527 
3432.701344  	55.165355 
3434.138222  	55.452982 
3435.575100  	55.715587 
3437.011978  	55.920671 
3438.448856  	56.114531 
3439.885734  	56.276486 
3441.322612  	56.574409 
3442.759490  	56.775944 
3444.196367  	56.853650 
3445.633245  	57.113560 
3447.070123  	57.332749 
3448.507001  	57.567138 
3449.943879  	57.915661 
3451.380757  	58.142034 
3452.817635  	58.438560 
3454.254513  	58.696843 
3455.691391  	58.756615 
3457.128269  	58.974085 
3458.565147  	59.242741 
3460.002025  	59.420739 
3461.438902  	59.618996 
3462.875780  	59.813672 
3464.312658  	60.149247 
3465.749536  	60.457798 
3467.186414  	60.608561 
3468.623292  	60.845408 
3470.060170  	61.021667 
3471.497048  	61.179798 
3472.933926  	61.458605 
3474.370804  	61.635364 
3475.807682  	61.868398 
3477.244560  	62.173210 
3478.681437  	62.396150 
3480.118315  	62.661994 
3481.555193  	62.807310 
3482.992071  	62.972306 
3484.428949  	63.355455 
3485.865827  	63.603666 
3487.302705  	63.822828 
3488.739583  	64.119685 
3490.176461  	64.340002 
3491.613339  	64.579607 
3493.050217  	64.670956 
3494.487095  	64.774515 
3495.923972  	65.162913 
3497.360850  	65.426851 
3498.797728  	65.614928 
3500.234606  	65.866834 
3501.671484  	65.964656 
3503.108362  	66.210266 
3504.545240  	66.611674 
3505.982118  	66.895545 
3507.418996  	67.186037 
3508.855874  	67.378416 
3510.292752  	67.524045 
3511.729630  	67.745774 
3513.166507  	67.879495 
3514.603385  	68.137821 
3516.040263  	68.544282 
3517.477141  	68.803765 
3518.914019  	68.956411 
3520.350897  	69.079242 
3521.787775  	69.289299 
3523.224653  	69.600979 
3524.661531  	69.822200 
3526.098409  	70.030921 
3527.535287  	70.256110 
3528.972165  	70.505441 
3530.409043  	70.846796 
3531.845920  	71.044130 
3533.282798  	71.185770 
3534.719676  	71.513053 
3536.156554  	71.822797 
3537.593432  	72.015509 
3539.030310  	72.155634 
3540.467188  	72.285067 
3541.904066  	72.513442 
3543.340944  	72.817563 
3544.777822  	73.170671 
3546.214700  	73.507890 
3547.651578  	73.739227 
3549.088455  	73.945312 
3550.525333  	74.108638 
3551.962211  	74.274093 
3553.399089  	74.508966 
3554.835967  	74.713385 
3556.272845  	75.006998 
3557.709723  	75.329282 
3559.146601  	75.479901 
3560.583479  	75.668573 
3562.020357  	75.941090 
3563.457235  	76.199073 
3564.894113  	76.451940 
3566.330990  	76.584996 
3567.767868  	76.823023 
3569.204746  	77.211266 
3570.641624  	77.372929 
3572.078502  	77.540183 
3573.515380  	77.800461 
3574.952258  	78.003805 
3576.389136  	78.268880 
3577.826014  	78.543282 
3579.262892  	78.735862 
3580.699770  	78.877821 
3582.136648  	78.996934 
3583.573525  	79.259070 
3585.010403  	79.551784 
3586.447281  	79.766553 
3587.884159  	80.079230 
3589.321037  	80.256337 
3590.757915  	80.310877 
3592.194793  	80.492049 
3593.631671  	80.663926 
3595.068549  	80.910166 
3596.505427  	81.260130 
3597.942305  	81.483806 
3599.379183  	81.648678 
3600.816060  	81.743499 
3602.252938  	81.863320 
3603.689816  	82.219441 
3605.126694  	82.514178 
3606.563572  	82.604188 
3608.000450  	82.704683 
3609.437328  	82.854426 
3610.874206  	83.029787 
3612.311084  	83.222247 
3613.747962  	83.476542 
3615.184840  	83.791278 
3616.621718  	84.029306 
3618.058595  	84.294942 
3619.495473  	84.596627 
3620.932351  	84.743137 
3622.369229  	84.898838 
3623.806107  	85.120006 
3625.242985  	85.306452 
3626.679863  	85.478981 
3628.116741  	85.602856 
3629.553619  	85.694490 
3630.990497  	85.952759 
3632.427375  	86.268669 
3633.864253  	86.591040 
3635.301130  	86.895246 
3636.738008  	87.126692 
3638.174886  	87.283302 
3639.611764  	87.469368 
3641.048642  	87.786935 
3642.485520  	88.029791 
3643.922398  	88.199714 
3645.359276  	88.501188 
3646.796154  	88.758524 
3648.233032  	88.935690 
3649.669910  	89.241285 
3651.106788  	89.502323 
3652.543665  	89.774374 
3653.980543  	90.070723 
3655.417421  	90.300551 
3656.854299  	90.601236 
3658.291177  	90.903208 
3659.728055  	91.145393 
3661.164933  	91.431495 
3662.601811  	91.662486 
3664.038689  	91.873982 
3665.475567  	92.148407 
3666.912445  	92.406798 
3668.349323  	92.655932 
3669.786200  	92.829112 
3671.223078  	92.980395 
3672.659956  	93.252782 
3674.096834  	93.502825 
3675.533712  	93.678381 
3676.970590  	93.890812 
3678.407468  	94.135967 
3679.844346  	94.382706 
3681.281224  	94.633992 
3682.718102  	94.863849 
3684.154980  	94.943041 
3685.591858  	94.991448 
3687.028735  	95.116896 
3688.465613  	95.210641 
3689.902491  	95.168759 
3691.339369  	95.289045 
3692.776247  	95.507451 
3694.213125  	95.652204 
3695.650003  	95.741513 
3697.086881  	95.789815 
3698.523759  	95.794920 
3699.960637  	95.829810 
3701.397515  	95.903336 
3702.834393  	96.021795 
3704.271270  	96.128836 
3705.708148  	96.208993 
3707.145026  	96.303128 
3708.581904  	96.437969 
3710.018782  	96.476549 
3711.455660  	96.435473 
3712.892538  	96.534656 
3714.329416  	96.685773 
3715.766294  	96.740370 
3717.203172  	96.837394 
3718.640050  	96.928404 
3720.076928  	96.886108 
3721.513805  	96.848732 
3722.950683  	96.885653 
3724.387561  	96.994740 
3725.824439  	97.070391 
3727.261317  	97.017550 
3728.698195  	97.038582 
3730.135073  	97.128614 
3731.571951  	97.012838 
3733.008829  	96.956521 
3734.445707  	97.040435 
3735.882585  	97.095840 
3737.319463  	97.112444 
3738.756340  	97.192244 
3740.193218  	97.192782 
3741.630096  	97.174339 
3743.066974  	97.234370 
3744.503852  	97.261585 
3745.940730  	97.190588 
3747.377608  	97.291230 
3748.814486  	97.430775 
3750.251364  	97.495506 
3751.688242  	97.433839 
3753.125120  	97.328672 
3754.561998  	97.402862 
3755.998875  	97.597330 
3757.435753  	97.659328 
3758.872631  	97.602479 
3760.309509  	97.592337 
3761.746387  	97.595226 
3763.183265  	97.621282 
3764.620143  	97.714965 
3766.057021  	97.742592 
3767.493899  	97.756100 
3768.930777  	97.815517 
3770.367655  	97.865461 
3771.804533  	97.898111 
3773.241411  	97.894861 
3774.678288  	97.866700 
3776.115166  	97.867666 
3777.552044  	97.931849 
3778.988922  	97.939941 
3780.425800  	97.962642 
3781.862678  	98.087582 
3783.299556  	98.140410 
3784.736434  	98.040861 
3786.173312  	98.029495 
3787.610190  	98.131276 
3789.047068  	98.161481 
3790.483946  	98.199308 
3791.920823  	98.224050 
3793.357701  	98.197487 
3794.794579  	98.152781 
3796.231457  	98.119004 
3797.668335  	98.117467 
3799.105213  	98.154935 
3800.542091  	98.174597 
3801.978969  	98.183259 
3803.415847  	98.133696 
3804.852725  	98.133722 
3806.289603  	98.255609 
3807.726481  	98.284611 
3809.163358  	98.163723 
3810.600236  	98.162840 
3812.037114  	98.232697 
3813.473992  	98.284455 
3814.910870  	98.227454 
3816.347748  	98.020864 
3817.784626  	98.037646 
3819.221504  	98.194198 
3820.658382  	98.209715 
3822.095260  	98.187660 
3823.532138  	98.250180 
3824.969016  	98.261492 
3826.405893  	98.197883 
3827.842771  	98.148158 
3829.279649  	98.203530 
3830.716527  	98.167077 
3832.153405  	98.078928 
3833.590283  	98.163057 
3835.027161  	98.179241 
3836.464039  	98.075291 
3837.900917  	98.148707 
3839.337795  	98.276837 
3840.774673  	98.216357 
3842.211551  	98.149361 
3843.648428  	98.158392 
3845.085306  	98.156191 
3846.522184  	98.096007 
3847.959062  	98.106458 
3849.395940  	98.233007 
3850.832818  	98.239097 
3852.269696  	98.143615 
3853.706574  	98.084682 
3855.143452  	98.190639 
3856.580330  	98.281822 
3858.017208  	98.194878 
3859.454086  	98.235825 
3860.890963  	98.437288 
3862.327841  	98.286191 
3863.764719  	97.987358 
3865.201597  	98.032283 
3866.638475  	98.170416 
3868.075353  	98.268902 
3869.512231  	98.340796 
3870.949109  	98.304843 
3872.385987  	98.311714 
3873.822865  	98.259857 
3875.259743  	98.228660 
3876.696621  	98.387678 
3878.133498  	98.362055 
3879.570376  	98.196783 
3881.007254  	98.205474 
3882.444132  	98.188782 
3883.881010  	98.058678 
3885.317888  	97.993690 
3886.754766  	98.107249 
3888.191644  	98.275002 
3889.628522  	98.329853 
3891.065400  	98.361845 
3892.502278  	98.292634 
3893.939156  	98.053184 
3895.376033  	97.990609 
3896.812911  	98.175966 
3898.249789  	98.328950 
3899.686667  	98.314052 
3901.123545  	98.248704 
3902.560423  	98.282142 
3903.997301  	98.230976 
3905.434179  	98.062504 
3906.871057  	98.182547 
3908.307935  	98.386219 
3909.744813  	98.359173 
3911.181691  	98.295386 
3912.618568  	98.300106 
3914.055446  	98.292121 
3915.492324  	98.285183 
3916.929202  	98.258305 
3918.366080  	98.287569 
3919.802958  	98.345018 
3921.239836  	98.299376 
3922.676714  	98.249635 
3924.113592  	98.259666 
3925.550470  	98.255009 
3926.987348  	98.253220 
3928.424226  	98.284677 
3929.861103  	98.293132 
3931.297981  	98.277897 
3932.734859  	98.250184 
3934.171737  	98.248259 
3935.608615  	98.267467 
3937.045493  	98.280794 
3938.482371  	98.342867 
3939.919249  	98.426544 
3941.356127  	98.401589 
3942.793005  	98.296723 
3944.229883  	98.244177 
3945.666761  	98.294222 
3947.103638  	98.297960 
3948.540516  	98.256591 
3949.977394  	98.239199 
3951.414272  	98.241185 
3952.851150  	98.250173 
3954.288028  	98.294745 
3955.724906  	98.280584 
3957.161784  	98.258949 
3958.598662  	98.277504 
3960.035540  	98.337300 
3961.472418  	98.378048 
3962.909296  	98.334309 
3964.346173  	98.338285 
3965.783051  	98.423620 
3967.219929  	98.413906 
3968.656807  	98.336105 
3970.093685  	98.304792 
3971.530563  	98.292133 
3972.967441  	98.278636 
3974.404319  	98.252818 
3975.841197  	98.218929 
3977.278075  	98.227581 
3978.714953  	98.293140 
3980.151831  	98.392147 
3981.588708  	98.457172 
3983.025586  	98.438195 
3984.462464  	98.389092 
3985.899342  	98.382876 
3987.336220  	98.401894 
3988.773098  	98.361320 
3990.209976  	98.282657 
3991.646854  	98.276220 
3993.083732  	98.321173 
3994.520610  	98.343973 
3995.957488  	98.336259 
3997.394366  	98.327646 
3998.831244  	98.370607 
4000.268121  	98.409097 