##TITLE=No Description
##DATA TYPE=INFRARED SPECTRUM
##XUNITS=1/CM
##YUNITS=%T
399.452061  	19.802055 
400.888939  	19.347634 
402.325817  	19.541381 
403.762695  	19.012333 
405.199573  	19.125022 
406.636451  	18.717666 
408.073328  	18.257629 
409.510206  	18.936725 
410.947084  	18.761701 
412.383962  	18.133222 
413.820840  	18.124318 
415.257718  	17.938354 
416.694596  	18.126404 
418.131474  	17.852223 
419.568352  	17.629821 
421.005230  	18.485568 
422.442108  	17.987042 
423.878986  	17.399118 
425.315863  	17.843997 
426.752741  	17.636029 
428.189619  	17.217494 
429.626497  	17.302899 
431.063375  	17.469084 
432.500253  	17.194907 
433.937131  	17.118486 
435.374009  	18.037592 
436.810887  	18.291976 
438.247765  	17.235754 
439.684643  	17.112135 
441.121521  	17.436275 
442.558398  	17.372829 
443.995276  	17.928825 
445.432154  	18.212818 
446.869032  	17.807900 
448.305910  	17.481127 
449.742788  	17.801814 
451.179666  	18.552916 
452.616544  	18.645667 
454.053422  	18.501424 
455.490300  	18.900191 
456.927178  	19.054394 
458.364056  	19.480505 
459.800933  	20.282389 
461.237811  	20.425534 
462.674689  	20.795970 
464.111567  	21.605750 
465.548445  	22.403442 
466.985323  	23.416512 
468.422201  	24.135668 
469.859079  	24.803901 
471.295957  	25.726935 
472.732835  	26.705283 
474.169713  	28.051911 
475.606591  	29.173637 
477.043469  	29.862852 
478.480346  	30.845680 
479.917224  	31.921790 
481.354102  	33.151826 
482.790980  	34.295888 
484.227858  	34.760777 
485.664736  	35.179535 
487.101614  	35.769740 
488.538492  	36.174054 
489.975370  	36.481339 
491.412248  	36.578548 
492.849126  	36.625426 
494.286004  	36.745734 
495.722881  	36.846922 
497.159759  	37.120838 
498.596637  	37.367843 
500.033515  	37.370424 
501.470393  	37.203692 
502.907271  	37.071627 
504.344149  	37.171385 
505.781027  	36.983019 
507.217905  	36.573358 
508.654783  	36.626781 
510.091661  	36.564088 
511.528539  	36.297272 
512.965416  	36.340517 
514.402294  	36.281277 
515.839172  	36.092521 
517.276050  	35.923790 
518.712928  	35.704489 
520.149806  	35.801457 
521.586684  	35.891462 
523.023562  	35.649212 
524.460440  	35.441267 
525.897318  	35.349207 
527.334196  	35.371488 
528.771074  	35.346400 
530.207951  	35.207469 
531.644829  	35.271769 
533.081707  	35.315832 
534.518585  	35.199293 
535.955463  	35.181261 
537.392341  	35.120404 
538.829219  	35.079626 
540.266097  	35.069636 
541.702975  	35.009486 
543.139853  	35.126690 
544.576731  	35.116756 
546.013609  	35.038151 
547.450486  	35.299560 
548.887364  	35.360541 
550.324242  	35.275315 
551.761120  	35.444759 
553.197998  	35.462692 
554.634876  	35.473803 
556.071754  	35.676752 
557.508632  	35.747024 
558.945510  	35.754287 
560.382388  	35.773628 
561.819266  	35.852218 
563.256144  	35.992169 
564.693021  	36.023555 
566.129899  	36.157543 
567.566777  	36.354185 
569.003655  	36.353100 
570.440533  	36.391186 
571.877411  	36.473956 
573.314289  	36.497479 
574.751167  	36.614139 
576.188045  	36.767395 
577.624923  	36.866266 
579.061801  	36.904755 
580.498679  	36.935914 
581.935556  	37.053866 
583.372434  	37.175840 
584.809312  	37.308688 
586.246190  	37.403152 
587.683068  	37.389281 
589.119946  	37.497983 
590.556824  	37.630220 
591.993702  	37.629036 
593.430580  	37.756104 
594.867458  	37.970727 
596.304336  	38.133915 
597.741214  	38.244768 
599.178091  	38.264389 
600.614969  	38.348474 
602.051847  	38.476468 
603.488725  	38.546140 
604.925603  	38.648874 
606.362481  	38.741299 
607.799359  	38.852014 
609.236237  	38.967508 
610.673115  	39.062497 
612.109993  	39.149054 
613.546871  	39.307132 
614.983749  	39.356957 
616.420626  	39.422445 
617.857504  	39.536839 
619.294382  	39.656477 
620.731260  	39.766271 
622.168138  	39.822709 
623.605016  	39.911947 
625.041894  	39.998367 
626.478772  	40.011408 
627.915650  	40.041274 
629.352528  	40.090009 
630.789406  	40.098838 
632.226284  	40.185345 
633.663161  	40.267179 
635.100039  	40.348141 
636.536917  	40.435237 
637.973795  	40.502272 
639.410673  	40.607845 
640.847551  	40.705713 
642.284429  	40.822285 
643.721307  	41.008394 
645.158185  	41.164227 
646.595063  	41.203002 
648.031941  	41.326314 
649.468819  	41.393500 
650.905696  	41.471911 
652.342574  	41.562797 
653.779452  	41.652509 
655.216330  	41.854709 
656.653208  	42.014106 
658.090086  	42.110368 
659.526964  	42.267195 
660.963842  	42.395829 
662.400720  	42.503284 
663.837598  	42.639591 
665.274476  	42.673969 
666.711354  	42.756186 
668.148231  	42.938924 
669.585109  	43.105425 
671.021987  	43.229547 
672.458865  	43.357254 
673.895743  	43.483823 
675.332621  	43.598362 
676.769499  	43.739278 
678.206377  	43.922830 
679.643255  	44.078039 
681.080133  	44.197855 
682.517011  	44.327698 
683.953889  	44.466839 
685.390766  	44.628596 
686.827644  	44.770984 
688.264522  	44.902720 
689.701400  	45.075284 
691.138278  	45.197512 
692.575156  	45.292939 
694.012034  	45.432995 
695.448912  	45.556669 
696.885790  	45.710697 
698.322668  	45.918443 
699.759546  	46.054066 
701.196424  	46.191192 
702.633301  	46.365945 
704.070179  	46.527854 
705.507057  	46.659855 
706.943935  	46.764985 
708.380813  	46.972313 
709.817691  	47.193771 
711.254569  	47.321197 
712.691447  	47.500907 
714.128325  	47.693567 
715.565203  	47.832300 
717.002081  	48.000915 
718.438959  	48.154448 
719.875837  	48.314336 
721.312714  	48.497988 
722.749592  	48.650740 
724.186470  	48.826527 
725.623348  	49.023061 
727.060226  	49.161180 
728.497104  	49.303445 
729.933982  	49.413502 
731.370860  	49.593252 
732.807738  	49.870824 
734.244616  	50.055702 
735.681494  	50.252239 
737.118372  	50.487095 
738.555249  	50.594004 
739.992127  	50.720980 
741.429005  	50.954346 
742.865883  	51.145277 
744.302761  	51.261324 
745.739639  	51.405042 
747.176517  	51.645874 
748.613395  	51.853644 
750.050273  	51.974365 
751.487151  	52.137728 
752.924029  	52.320414 
754.360907  	52.513660 
755.797784  	52.738939 
757.234662  	52.903809 
758.671540  	53.067694 
760.108418  	53.281907 
761.545296  	53.463449 
762.982174  	53.610494 
764.419052  	53.743751 
765.855930  	53.892621 
767.292808  	54.029771 
768.729686  	54.111665 
770.166564  	54.219520 
771.603442  	54.317825 
773.040319  	54.381370 
774.477197  	54.493583 
775.914075  	54.569120 
777.350953  	54.640384 
778.787831  	54.795008 
780.224709  	54.908402 
781.661587  	55.003098 
783.098465  	55.142850 
784.535343  	55.323317 
785.972221  	55.571154 
787.409099  	55.760286 
788.845977  	55.928718 
790.282854  	56.218119 
791.719732  	56.500553 
793.156610  	56.743533 
794.593488  	56.982883 
796.030366  	57.216095 
797.467244  	57.532678 
798.904122  	57.841700 
800.341000  	58.116218 
801.777878  	58.478201 
803.214756  	58.829118 
804.651634  	59.160077 
806.088512  	59.532634 
807.525389  	59.869025 
808.962267  	60.210405 
810.399145  	60.575330 
811.836023  	60.927101 
813.272901  	61.291934 
814.709779  	61.639292 
816.146657  	62.005374 
817.583535  	62.402228 
819.020413  	62.750051 
820.457291  	63.098147 
821.894169  	63.468229 
823.331047  	63.829434 
824.767924  	64.221040 
826.204802  	64.610261 
827.641680  	64.960291 
829.078558  	65.309259 
830.515436  	65.676881 
831.952314  	66.016752 
833.389192  	66.299007 
834.826070  	66.634039 
836.262948  	67.030058 
837.699826  	67.342441 
839.136704  	67.602050 
840.573582  	67.870143 
842.010459  	68.118781 
843.447337  	68.374190 
844.884215  	68.639544 
846.321093  	68.917720 
847.757971  	69.187022 
849.194849  	69.403602 
850.631727  	69.632854 
852.068605  	69.855653 
853.505483  	70.033878 
854.942361  	70.260947 
856.379239  	70.490616 
857.816117  	70.679019 
859.252994  	70.902401 
860.689872  	71.108196 
862.126750  	71.252773 
863.563628  	71.384927 
865.000506  	71.556662 
866.437384  	71.794966 
867.874262  	72.014083 
869.311140  	72.201468 
870.748018  	72.419770 
872.184896  	72.601878 
873.621774  	72.742659 
875.058652  	72.893477 
876.495529  	73.043919 
877.932407  	73.209641 
879.369285  	73.376016 
880.806163  	73.548828 
882.243041  	73.735030 
883.679919  	73.870166 
885.116797  	73.983347 
886.553675  	74.095283 
887.990553  	74.190996 
889.427431  	74.320890 
890.864309  	74.435552 
892.301187  	74.534688 
893.738064  	74.669877 
895.174942  	74.740342 
896.611820  	74.785632 
898.048698  	74.880073 
899.485576  	74.926245 
900.922454  	74.966524 
902.359332  	75.049544 
903.796210  	75.117836 
905.233088  	75.193125 
906.669966  	75.254095 
908.106844  	75.298182 
909.543722  	75.357487 
910.980599  	75.372145 
912.417477  	75.360322 
913.854355  	75.368607 
915.291233  	75.385634 
916.728111  	75.425662 
918.164989  	75.442349 
919.601867  	75.416339 
921.038745  	75.387556 
922.475623  	75.349232 
923.912501  	75.337528 
925.349379  	75.347268 
926.786257  	75.312418 
928.223134  	75.256007 
929.660012  	75.209248 
931.096890  	75.185645 
932.533768  	75.169118 
933.970646  	75.125740 
935.407524  	75.093304 
936.844402  	75.062241 
938.281280  	75.041147 
939.718158  	75.078500 
941.155036  	75.093773 
942.591914  	75.087701 
944.028792  	75.104286 
945.465670  	75.101187 
946.902547  	75.135431 
948.339425  	75.174409 
949.776303  	75.177948 
951.213181  	75.258939 
952.650059  	75.347096 
954.086937  	75.420818 
955.523815  	75.567231 
956.960693  	75.681711 
958.397571  	75.797278 
959.834449  	75.960940 
961.271327  	76.083902 
962.708205  	76.260722 
964.145082  	76.479473 
965.581960  	76.663656 
967.018838  	76.904952 
968.455716  	77.166628 
969.892594  	77.441837 
971.329472  	77.756073 
972.766350  	78.013132 
974.203228  	78.275825 
975.640106  	78.586722 
977.076984  	78.885320 
978.513862  	79.202664 
979.950740  	79.505214 
981.387617  	79.775270 
982.824495  	80.041944 
984.261373  	80.297258 
985.698251  	80.576936 
987.135129  	80.821278 
988.572007  	80.993550 
990.008885  	81.174066 
991.445763  	81.317196 
992.882641  	81.388016 
994.319519  	81.412762 
995.756397  	81.400877 
997.193275  	81.399882 
998.630152  	81.338254 
1000.067030  	81.196824 
1001.503908  	81.084531 
1002.940786  	80.939690 
1004.377664  	80.742016 
1005.814542  	80.523087 
1007.251420  	80.234854 
1008.688298  	79.979889 
1010.125176  	79.728661 
1011.562054  	79.356189 
1012.998932  	78.970354 
1014.435810  	78.532342 
1015.872687  	78.002613 
1017.309565  	77.499698 
1018.746443  	76.922193 
1020.183321  	76.266512 
1021.620199  	75.606109 
1023.057077  	74.842913 
1024.493955  	74.043849 
1025.930833  	73.199183 
1027.367711  	72.248156 
1028.804589  	71.319079 
1030.241467  	70.314014 
1031.678345  	69.214658 
1033.115222  	68.123374 
1034.552100  	66.921561 
1035.988978  	65.732308 
1037.425856  	64.558505 
1038.862734  	63.242333 
1040.299612  	61.995403 
1041.736490  	60.722896 
1043.173368  	59.364972 
1044.610246  	58.141276 
1046.047124  	56.815784 
1047.484002  	55.466750 
1048.920880  	54.258153 
1050.357757  	52.944997 
1051.794635  	51.718584 
1053.231513  	50.533363 
1054.668391  	49.249023 
1056.105269  	48.137918 
1057.542147  	46.987891 
1058.979025  	45.839869 
1060.415903  	44.847392 
1061.852781  	43.713826 
1063.289659  	42.709583 
1064.726537  	41.809432 
1066.163415  	40.795172 
1067.600292  	39.965469 
1069.037170  	39.033623 
1070.474048  	38.074235 
1071.910926  	37.361020 
1073.347804  	36.462461 
1074.784682  	35.662768 
1076.221560  	35.003741 
1077.658438  	34.153357 
1079.095316  	33.533207 
1080.532194  	32.920064 
1081.969072  	32.236270 
1083.405950  	31.784943 
1084.842827  	31.170326 
1086.279705  	30.679418 
1087.716583  	30.387218 
1089.153461  	29.928719 
1090.590339  	29.777407 
1092.027217  	29.701929 
1093.464095  	29.579432 
1094.900973  	29.850843 
1096.337851  	30.107116 
1097.774729  	30.579010 
1099.211607  	31.486338 
1100.648485  	32.436792 
1102.085362  	33.851990 
1103.522240  	35.577093 
1104.959118  	37.356235 
1106.395996  	39.560388 
1107.832874  	41.799611 
1109.269752  	44.012885 
1110.706630  	46.320282 
1112.143508  	48.317691 
1113.580386  	50.160663 
1115.017264  	51.860387 
1116.454142  	53.255315 
1117.891020  	54.567448 
1119.327897  	55.673209 
1120.764775  	56.599167 
1122.201653  	57.485485 
1123.638531  	58.173496 
1125.075409  	58.830092 
1126.512287  	59.440776 
1127.949165  	59.872626 
1129.386043  	60.352372 
1130.822921  	60.793072 
1132.259799  	61.138472 
1133.696677  	61.504434 
1135.133555  	61.800053 
1136.570432  	62.116068 
1138.007310  	62.421666 
1139.444188  	62.642962 
1140.881066  	62.933262 
1142.317944  	63.162890 
1143.754822  	63.335139 
1145.191700  	63.573467 
1146.628578  	63.746155 
1148.065456  	63.951644 
1149.502334  	64.167009 
1150.939212  	64.290921 
1152.376090  	64.505368 
1153.812967  	64.693397 
1155.249845  	64.835112 
1156.686723  	65.092965 
1158.123601  	65.287089 
1159.560479  	65.452600 
1160.997357  	65.663452 
1162.434235  	65.810990 
1163.871113  	66.007153 
1165.307991  	66.224727 
1166.744869  	66.446431 
1168.181747  	66.731344 
1169.618625  	66.915871 
1171.055502  	67.104042 
1172.492380  	67.381073 
1173.929258  	67.597522 
1175.366136  	67.848574 
1176.803014  	68.102343 
1178.239892  	68.309848 
1179.676770  	68.592298 
1181.113648  	68.841579 
1182.550526  	69.082529 
1183.987404  	69.382361 
1185.424282  	69.623210 
1186.861160  	69.892414 
1188.298038  	70.183271 
1189.734915  	70.414002 
1191.171793  	70.674280 
1192.608671  	70.929166 
1194.045549  	71.192518 
1195.482427  	71.477693 
1196.919305  	71.711545 
1198.356183  	71.994592 
1199.793061  	72.291785 
1201.229939  	72.543957 
1202.666817  	72.846197 
1204.103695  	73.111491 
1205.540573  	73.346927 
1206.977450  	73.631336 
1208.414328  	73.906453 
1209.851206  	74.226772 
1211.288084  	74.535717 
1212.724962  	74.786474 
1214.161840  	75.108177 
1215.598718  	75.414977 
1217.035596  	75.694777 
1218.472474  	76.038594 
1219.909352  	76.349857 
1221.346230  	76.672826 
1222.783108  	77.044397 
1224.219985  	77.400419 
1225.656863  	77.788518 
1227.093741  	78.150445 
1228.530619  	78.496472 
1229.967497  	78.924316 
1231.404375  	79.344630 
1232.841253  	79.762186 
1234.278131  	80.211943 
1235.715009  	80.631087 
1237.151887  	81.080420 
1238.588765  	81.569147 
1240.025643  	82.044654 
1241.462520  	82.527409 
1242.899398  	83.007386 
1244.336276  	83.497507 
1245.773154  	83.993502 
1247.210032  	84.457084 
1248.646910  	84.920511 
1250.083788  	85.380162 
1251.520666  	85.810924 
1252.957544  	86.222125 
1254.394422  	86.586449 
1255.831300  	86.909526 
1257.268178  	87.218904 
1258.705055  	87.481729 
1260.141933  	87.701619 
1261.578811  	87.924303 
1263.015689  	88.124991 
1264.452567  	88.269484 
1265.889445  	88.389916 
1267.326323  	88.513172 
1268.763201  	88.632949 
1270.200079  	88.747442 
1271.636957  	88.858317 
1273.073835  	88.954089 
1274.510713  	89.017482 
1275.947590  	89.071299 
1277.384468  	89.147202 
1278.821346  	89.211049 
1280.258224  	89.251025 
1281.695102  	89.298473 
1283.131980  	89.337698 
1284.568858  	89.380734 
1286.005736  	89.445013 
1287.442614  	89.482056 
1288.879492  	89.506804 
1290.316370  	89.554538 
1291.753248  	89.594316 
1293.190125  	89.633499 
1294.627003  	89.677834 
1296.063881  	89.708823 
1297.500759  	89.738308 
1298.937637  	89.755906 
1300.374515  	89.767366 
1301.811393  	89.792599 
1303.248271  	89.807372 
1304.685149  	89.818625 
1306.122027  	89.834334 
1307.558905  	89.845016 
1308.995783  	89.877727 
1310.432660  	89.913686 
1311.869538  	89.937758 
1313.306416  	89.971069 
1314.743294  	89.979087 
1316.180172  	89.978826 
1317.617050  	89.997263 
1319.053928  	90.013300 
1320.490806  	90.039862 
1321.927684  	90.075226 
1323.364562  	90.087777 
1324.801440  	90.098745 
1326.238318  	90.103144 
1327.675195  	90.085341 
1329.112073  	90.084177 
1330.548951  	90.092952 
1331.985829  	90.096164 
1333.422707  	90.086505 
1334.859585  	90.084320 
1336.296463  	90.081028 
1337.733341  	90.052249 
1339.170219  	90.026947 
1340.607097  	90.048845 
1342.043975  	90.094060 
1343.480853  	90.124163 
1344.917730  	90.115748 
1346.354608  	90.097929 
1347.791486  	90.106629 
1349.228364  	90.106020 
1350.665242  	90.100341 
1352.102120  	90.090194 
1353.538998  	90.091867 
1354.975876  	90.099385 
1356.412754  	90.119677 
1357.849632  	90.130336 
1359.286510  	90.123732 
1360.723388  	90.118211 
1362.160265  	90.101623 
1363.597143  	90.110371 
1365.034021  	90.121846 
1366.470899  	90.131207 
1367.907777  	90.131091 
1369.344655  	90.130033 
1370.781533  	90.148737 
1372.218411  	90.146537 
1373.655289  	90.124018 
1375.092167  	90.120496 
1376.529045  	90.127109 
1377.965923  	90.129894 
1379.402800  	90.138021 
1380.839678  	90.141375 
1382.276556  	90.160078 
1383.713434  	90.168052 
1385.150312  	90.165974 
1386.587190  	90.160564 
1388.024068  	90.148376 
1389.460946  	90.161318 
1390.897824  	90.168310 
1392.334702  	90.152435 
1393.771580  	90.162786 
1395.208458  	90.158682 
1396.645335  	90.129913 
1398.082213  	90.141170 
1399.519091  	90.149570 
1400.955969  	90.148984 
1402.392847  	90.165110 
1403.829725  	90.153931 
1405.266603  	90.140121 
1406.703481  	90.132786 
1408.140359  	90.120881 
1409.577237  	90.115102 
1411.014115  	90.107167 
1412.450993  	90.097051 
1413.887871  	90.109996 
1415.324748  	90.100937 
1416.761626  	90.057769 
1418.198504  	90.040325 
1419.635382  	90.036498 
1421.072260  	90.032014 
1422.509138  	90.015925 
1423.946016  	89.997859 
1425.382894  	90.005369 
1426.819772  	89.985484 
1428.256650  	89.955664 
1429.693528  	89.934810 
1431.130406  	89.911940 
1432.567283  	89.897267 
1434.004161  	89.871863 
1435.441039  	89.843019 
1436.877917  	89.827313 
1438.314795  	89.805265 
1439.751673  	89.772462 
1441.188551  	89.760493 
1442.625429  	89.737140 
1444.062307  	89.739814 
1445.499185  	89.736627 
1446.936063  	89.714268 
1448.372941  	89.707554 
1449.809818  	89.699849 
1451.246696  	89.686313 
1452.683574  	89.680472 
1454.120452  	89.670891 
1455.557330  	89.664648 
1456.994208  	89.651126 
1458.431086  	89.626547 
1459.867964  	89.611639 
1461.304842  	89.589534 
1462.741720  	89.573567 
1464.178598  	89.584269 
1465.615476  	89.560091 
1467.052353  	89.539662 
1468.489231  	89.533651 
1469.926109  	89.508440 
1471.362987  	89.494289 
1472.799865  	89.473842 
1474.236743  	89.470109 
1475.673621  	89.460410 
1477.110499  	89.423555 
1478.547377  	89.399429 
1479.984255  	89.383521 
1481.421133  	89.370746 
1482.858011  	89.374890 
1484.294888  	89.345616 
1485.731766  	89.286271 
1487.168644  	89.234071 
1488.605522  	89.169198 
1490.042400  	89.130195 
1491.479278  	89.109034 
1492.916156  	89.061227 
1494.353034  	89.019060 
1495.789912  	88.978292 
1497.226790  	88.923032 
1498.663668  	88.879871 
1500.100546  	88.818904 
1501.537423  	88.763689 
1502.974301  	88.730563 
1504.411179  	88.718703 
1505.848057  	88.707889 
1507.284935  	88.631939 
1508.721813  	88.551064 
1510.158691  	88.525359 
1511.595569  	88.506435 
1513.032447  	88.498116 
1514.469325  	88.482015 
1515.906203  	88.445589 
1517.343081  	88.414947 
1518.779958  	88.386375 
1520.216836  	88.341760 
1521.653714  	88.325190 
1523.090592  	88.309271 
1524.527470  	88.269300 
1525.964348  	88.236512 
1527.401226  	88.188051 
1528.838104  	88.168811 
1530.274982  	88.151647 
1531.711860  	88.086287 
1533.148738  	88.048088 
1534.585616  	88.012635 
1536.022493  	87.939278 
1537.459371  	87.902717 
1538.896249  	87.865873 
1540.333127  	87.803960 
1541.770005  	87.723697 
1543.206883  	87.592697 
1544.643761  	87.522799 
1546.080639  	87.483439 
1547.517517  	87.401006 
1548.954395  	87.329532 
1550.391273  	87.237553 
1551.828151  	87.164795 
1553.265028  	87.120193 
1554.701906  	87.021978 
1556.138784  	86.940050 
1557.575662  	86.884390 
1559.012540  	86.775695 
1560.449418  	86.718466 
1561.886296  	86.564322 
1563.323174  	86.427712 
1564.760052  	86.322974 
1566.196930  	86.183208 
1567.633808  	86.041421 
1569.070686  	85.917752 
1570.507563  	85.768395 
1571.944441  	85.625018 
1573.381319  	85.454150 
1574.818197  	85.234379 
1576.255075  	85.064524 
1577.691953  	84.789625 
1579.128831  	84.520129 
1580.565709  	84.436059 
1582.002587  	84.113716 
1583.439465  	83.956924 
1584.876343  	83.683362 
1586.313221  	83.392390 
1587.750098  	83.159241 
1589.186976  	82.824476 
1590.623854  	82.520451 
1592.060732  	82.252877 
1593.497610  	81.944855 
1594.934488  	81.651114 
1596.371366  	81.347856 
1597.808244  	81.018913 
1599.245122  	80.714915 
1600.682000  	80.305888 
1602.118878  	79.864242 
1603.555756  	79.488868 
1604.992633  	78.999830 
1606.429511  	78.569687 
1607.866389  	78.149294 
1609.303267  	77.637659 
1610.740145  	77.250544 
1612.177023  	76.781046 
1613.613901  	76.259546 
1615.050779  	75.883816 
1616.487657  	75.443510 
1617.924535  	75.052411 
1619.361413  	74.634489 
1620.798291  	74.118055 
1622.235168  	73.810190 
1623.672046  	73.518512 
1625.108924  	73.105167 
1626.545802  	72.844777 
1627.982680  	72.552223 
1629.419558  	72.333581 
1630.856436  	72.240813 
1632.293314  	72.066397 
1633.730192  	71.994807 
1635.167070  	72.020797 
1636.603948  	72.076064 
1638.040826  	72.203957 
1639.477703  	72.175815 
1640.914581  	72.237938 
1642.351459  	72.479994 
1643.788337  	72.598406 
1645.225215  	72.769973 
1646.662093  	73.125507 
1648.098971  	73.455394 
1649.535849  	73.754823 
1650.972727  	73.924756 
1652.409605  	74.117806 
1653.846483  	74.968303 
1655.283361  	75.256761 
1656.720239  	75.401404 
1658.157116  	75.796727 
1659.593994  	76.126627 
1661.030872  	76.490960 
1662.467750  	76.994287 
1663.904628  	77.456312 
1665.341506  	77.869761 
1666.778384  	78.184837 
1668.215262  	78.535244 
1669.652140  	79.117186 
1671.089018  	79.592778 
1672.525896  	79.953765 
1673.962774  	80.323374 
1675.399651  	80.717429 
1676.836529  	81.252017 
1678.273407  	81.605408 
1679.710285  	81.995396 
1681.147163  	82.458028 
1682.584041  	82.811375 
1684.020919  	83.228396 
1685.457797  	83.801779 
1686.894675  	84.082890 
1688.331553  	84.421728 
1689.768431  	84.842571 
1691.205309  	85.228580 
1692.642186  	85.617464 
1694.079064  	85.908338 
1695.515942  	86.255904 
1696.952820  	86.680422 
1698.389698  	86.914830 
1699.826576  	87.231223 
1701.263454  	87.698638 
1702.700332  	87.905393 
1704.137210  	88.172179 
1705.574088  	88.484041 
1707.010966  	88.766359 
1708.447844  	89.091467 
1709.884721  	89.375334 
1711.321599  	89.660702 
1712.758477  	89.902913 
1714.195355  	90.099708 
1715.632233  	90.337375 
1717.069111  	90.570560 
1718.505989  	90.738322 
1719.942867  	90.958635 
1721.379745  	91.134118 
1722.816623  	91.337808 
1724.253501  	91.571211 
1725.690379  	91.753534 
1727.127256  	91.951200 
1728.564134  	92.079027 
1730.001012  	92.176547 
1731.437890  	92.337852 
1732.874768  	92.466646 
1734.311646  	92.577751 
1735.748524  	92.743338 
1737.185402  	92.810826 
1738.622280  	92.913882 
1740.059158  	93.055006 
1741.496036  	93.144807 
1742.932914  	93.270550 
1744.369791  	93.371413 
1745.806669  	93.465944 
1747.243547  	93.609722 
1748.680425  	93.690269 
1750.117303  	93.794938 
1751.554181  	93.927974 
1752.991059  	94.001991 
1754.427937  	94.095566 
1755.864815  	94.164334 
1757.301693  	94.225627 
1758.738571  	94.330889 
1760.175449  	94.381933 
1761.612326  	94.456018 
1763.049204  	94.548135 
1764.486082  	94.572664 
1765.922960  	94.645186 
1767.359838  	94.731000 
1768.796716  	94.758660 
1770.233594  	94.819049 
1771.670472  	94.853722 
1773.107350  	94.868435 
1774.544228  	94.924884 
1775.981106  	94.948664 
1777.417984  	95.000138 
1778.854861  	95.057766 
1780.291739  	95.076264 
1781.728617  	95.134672 
1783.165495  	95.169378 
1784.602373  	95.195517 
1786.039251  	95.253772 
1787.476129  	95.291546 
1788.913007  	95.317737 
1790.349885  	95.332130 
1791.786763  	95.316117 
1793.223641  	95.429225 
1794.660519  	95.465985 
1796.097396  	95.421613 
1797.534274  	95.461229 
1798.971152  	95.499553 
1800.408030  	95.522378 
1801.844908  	95.497910 
1803.281786  	95.467796 
1804.718664  	95.543589 
1806.155542  	95.584263 
1807.592420  	95.598380 
1809.029298  	95.641198 
1810.466176  	95.645652 
1811.903054  	95.672658 
1813.339931  	95.704843 
1814.776809  	95.703094 
1816.213687  	95.733869 
1817.650565  	95.744755 
1819.087443  	95.742572 
1820.524321  	95.771307 
1821.961199  	95.768691 
1823.398077  	95.773903 
1824.834955  	95.812297 
1826.271833  	95.791719 
1827.708711  	95.808492 
1829.145589  	95.846276 
1830.582466  	95.819427 
1832.019344  	95.854953 
1833.456222  	95.878064 
1834.893100  	95.885694 
1836.329978  	95.893732 
1837.766856  	95.870739 
1839.203734  	95.890872 
1840.640612  	95.876232 
1842.077490  	95.835953 
1843.514368  	95.863346 
1844.951246  	95.826284 
1846.388124  	95.812086 
1847.825001  	95.845373 
1849.261879  	95.811244 
1850.698757  	95.824227 
1852.135635  	95.920179 
1853.572513  	95.902148 
1855.009391  	95.908747 
1856.446269  	95.917687 
1857.883147  	95.920024 
1859.320025  	95.956152 
1860.756903  	95.929089 
1862.193781  	95.933398 
1863.630659  	95.960883 
1865.067536  	95.922530 
1866.504414  	95.923901 
1867.941292  	95.952845 
1869.378170  	95.953421 
1870.815048  	95.972472 
1872.251926  	95.967733 
1873.688804  	96.043578 
1875.125682  	96.095358 
1876.562560  	96.028033 
1877.999438  	96.046926 
1879.436316  	96.058839 
1880.873194  	96.020403 
1882.310072  	96.022970 
1883.746949  	95.991195 
1885.183827  	96.006812 
1886.620705  	96.041549 
1888.057583  	95.998282 
1889.494461  	96.006969 
1890.931339  	96.010119 
1892.368217  	96.012089 
1893.805095  	96.063382 
1895.241973  	96.073538 
1896.678851  	96.114128 
1898.115729  	96.134822 
1899.552607  	96.078515 
1900.989484  	96.110408 
1902.426362  	96.121788 
1903.863240  	96.101946 
1905.300118  	96.133018 
1906.736996  	96.136614 
1908.173874  	96.097704 
1909.610752  	96.111191 
1911.047630  	96.067275 
1912.484508  	96.132056 
1913.921386  	96.105923 
1915.358264  	95.968587 
1916.795142  	96.085957 
1918.232019  	96.180791 
1919.668897  	96.143605 
1921.105775  	96.192955 
1922.542653  	96.191217 
1923.979531  	96.164826 
1925.416409  	96.096969 
1926.853287  	96.027511 
1928.290165  	96.091602 
1929.727043  	96.110491 
1931.163921  	96.075308 
1932.600799  	96.107857 
1934.037677  	96.065710 
1935.474554  	96.037184 
1936.911432  	96.103976 
1938.348310  	96.146051 
1939.785188  	96.160981 
1941.222066  	96.145617 
1942.658944  	96.159434 
1944.095822  	96.159676 
1945.532700  	96.043304 
1946.969578  	96.098446 
1948.406456  	96.273516 
1949.843334  	96.244513 
1951.280212  	96.202794 
1952.717089  	96.152028 
1954.153967  	96.080576 
1955.590845  	96.164940 
1957.027723  	96.226548 
1958.464601  	96.204378 
1959.901479  	96.133295 
1961.338357  	96.104052 
1962.775235  	96.271829 
1964.212113  	96.304339 
1965.648991  	96.165086 
1967.085869  	96.118295 
1968.522747  	96.141632 
1969.959624  	96.239259 
1971.396502  	96.172850 
1972.833380  	96.010345 
1974.270258  	96.262019 
1975.707136  	96.377351 
1977.144014  	96.217583 
1978.580892  	96.258399 
1980.017770  	96.123287 
1981.454648  	96.027982 
1982.891526  	96.107605 
1984.328404  	96.026383 
1985.765282  	96.017743 
1987.202159  	96.074803 
1988.639037  	96.093819 
1990.075915  	96.029556 
1991.512793  	96.043796 
1992.949671  	95.801092 
1994.386549  	95.830167 
1995.823427  	95.802446 
1997.260305  	95.910737 
1998.697183  	96.014062 
2000.134061  	95.907254 
2001.570939  	96.160526 
2003.007817  	96.417828 
2004.444694  	96.344578 
2005.881572  	96.233272 
2007.318450  	95.954669 
2008.755328  	95.934737 
2010.192206  	96.155660 
2011.629084  	95.907916 
2013.065962  	95.512035 
2014.502840  	95.381226 
2015.939718  	95.467422 
2017.376596  	95.650834 
2018.813474  	95.697037 
2020.250352  	95.770440 
2021.687229  	95.849509 
2023.124107  	95.820148 
2024.560985  	95.778653 
2025.997863  	95.646044 
2027.434741  	95.750144 
2028.871619  	96.013420 
2030.308497  	96.067362 
2031.745375  	96.187097 
2033.182253  	96.018250 
2034.619131  	95.715433 
2036.056009  	95.797904 
2037.492887  	95.596930 
2038.929764  	95.456213 
2040.366642  	95.694237 
2041.803520  	95.580716 
2043.240398  	95.526300 
2044.677276  	95.703337 
2046.114154  	95.708762 
2047.551032  	95.823226 
2048.987910  	95.807621 
2050.424788  	95.619057 
2051.861666  	95.513429 
2053.298544  	95.300865 
2054.735422  	95.250355 
2056.172299  	95.303632 
2057.609177  	95.187132 
2059.046055  	95.272529 
2060.482933  	95.379669 
2061.919811  	95.348876 
2063.356689  	95.420680 
2064.793567  	95.258635 
2066.230445  	95.064162 
2067.667323  	95.179931 
2069.104201  	95.217738 
2070.541079  	95.215993 
2071.977957  	95.268484 
2073.414834  	95.256426 
2074.851712  	95.256769 
2076.288590  	95.101816 
2077.725468  	94.942261 
2079.162346  	95.058855 
2080.599224  	95.133768 
2082.036102  	95.064269 
2083.472980  	95.062200 
2084.909858  	95.102488 
2086.346736  	95.038842 
2087.783614  	94.933870 
2089.220492  	95.057676 
2090.657369  	95.172116 
2092.094247  	95.025356 
2093.531125  	95.042586 
2094.968003  	95.130097 
2096.404881  	94.987104 
2097.841759  	94.916131 
2099.278637  	94.873657 
2100.715515  	94.811640 
2102.152393  	94.844701 
2103.589271  	94.785100 
2105.026149  	94.764559 
2106.463027  	94.839803 
2107.899904  	94.811414 
2109.336782  	94.806735 
2110.773660  	94.812473 
2112.210538  	94.831067 
2113.647416  	94.937635 
2115.084294  	94.930279 
2116.521172  	94.887975 
2117.958050  	94.872370 
2119.394928  	94.871720 
2120.831806  	95.112889 
2122.268684  	95.257393 
2123.705562  	95.098857 
2125.142440  	95.046456 
2126.579317  	94.961643 
2128.016195  	94.874785 
2129.453073  	95.086397 
2130.889951  	95.102117 
2132.326829  	94.835477 
2133.763707  	94.890498 
2135.200585  	95.173407 
2136.637463  	95.161811 
2138.074341  	94.920013 
2139.511219  	94.940763 
2140.948097  	95.088859 
2142.384975  	95.053041 
2143.821852  	95.222366 
2145.258730  	95.466893 
2146.695608  	95.348382 
2148.132486  	95.206149 
2149.569364  	95.311935 
2151.006242  	95.574050 
2152.443120  	95.588718 
2153.879998  	95.363721 
2155.316876  	95.546083 
2156.753754  	95.782290 
2158.190632  	95.866440 
2159.627510  	95.932930 
2161.064387  	95.363938 
2162.501265  	95.269632 
2163.938143  	95.577168 
2165.375021  	95.124873 
2166.811899  	95.030633 
2168.248777  	95.492386 
2169.685655  	95.562063 
2171.122533  	95.544902 
2172.559411  	95.404164 
2173.996289  	95.455918 
2175.433167  	96.030903 
2176.870045  	96.099324 
2178.306922  	95.821109 
2179.743800  	95.763171 
2181.180678  	95.645380 
2182.617556  	95.639258 
2184.054434  	95.632940 
2185.491312  	95.546627 
2186.928190  	95.518683 
2188.365068  	95.427588 
2189.801946  	95.728642 
2191.238824  	96.037782 
2192.675702  	95.640884 
2194.112580  	95.444570 
2195.549457  	95.575383 
2196.986335  	95.465164 
2198.423213  	95.484820 
2199.860091  	95.585276 
2201.296969  	95.561913 
2202.733847  	95.484471 
2204.170725  	95.373470 
2205.607603  	95.571136 
2207.044481  	95.726860 
2208.481359  	95.423275 
2209.918237  	95.319437 
2211.355115  	95.546612 
2212.791992  	95.781602 
2214.228870  	95.995800 
2215.665748  	95.887912 
2217.102626  	95.552016 
2218.539504  	95.425212 
2219.976382  	95.552738 
2221.413260  	95.729766 
2222.850138  	95.758290 
2224.287016  	95.676256 
2225.723894  	95.554426 
2227.160772  	95.518809 
2228.597650  	95.743564 
2230.034527  	95.820504 
2231.471405  	95.622519 
2232.908283  	95.616063 
2234.345161  	95.604725 
2235.782039  	95.443976 
2237.218917  	95.503444 
2238.655795  	95.715555 
2240.092673  	95.867397 
2241.529551  	95.897342 
2242.966429  	95.821805 
2244.403307  	95.778478 
2245.840185  	95.779268 
2247.277062  	95.871588 
2248.713940  	95.941055 
2250.150818  	95.779273 
2251.587696  	95.708772 
2253.024574  	95.778969 
2254.461452  	95.868164 
2255.898330  	95.906881 
2257.335208  	95.796783 
2258.772086  	95.720452 
2260.208964  	95.811920 
2261.645842  	95.862983 
2263.082720  	95.929097 
2264.519597  	96.036392 
2265.956475  	95.989864 
2267.393353  	95.905657 
2268.830231  	95.895101 
2270.267109  	95.945781 
2271.703987  	96.050105 
2273.140865  	96.092320 
2274.577743  	96.086612 
2276.014621  	96.046780 
2277.451499  	95.936096 
2278.888377  	95.948959 
2280.325255  	96.004328 
2281.762132  	95.973550 
2283.199010  	96.003164 
2284.635888  	96.048315 
2286.072766  	96.020108 
2287.509644  	95.974742 
2288.946522  	95.939925 
2290.383400  	95.989344 
2291.820278  	96.067674 
2293.257156  	96.093310 
2294.694034  	96.102085 
2296.130912  	96.073262 
2297.567790  	96.031675 
2299.004667  	96.031837 
2300.441545  	96.077495 
2301.878423  	96.075505 
2303.315301  	96.130030 
2304.752179  	96.085097 
2306.189057  	96.060788 
2307.625935  	96.108711 
2309.062813  	96.087765 
2310.499691  	96.052155 
2311.936569  	96.036525 
2313.373447  	96.047154 
2314.810325  	96.100830 
2316.247202  	96.112457 
2317.684080  	96.114643 
2319.120958  	96.128730 
2320.557836  	96.089809 
2321.994714  	96.054752 
2323.431592  	96.062741 
2324.868470  	96.135780 
2326.305348  	96.257228 
2327.742226  	96.302143 
2329.179104  	96.285607 
2330.615982  	96.286476 
2332.052860  	96.268418 
2333.489737  	96.274396 
2334.926615  	96.357027 
2336.363493  	96.433825 
2337.800371  	96.416609 
2339.237249  	96.351364 
2340.674127  	96.343112 
2342.111005  	96.370571 
2343.547883  	96.396155 
2344.984761  	96.420871 
2346.421639  	96.411924 
2347.858517  	96.417809 
2349.295395  	96.452831 
2350.732273  	96.479755 
2352.169150  	96.506642 
2353.606028  	96.500548 
2355.042906  	96.458522 
2356.479784  	96.488504 
2357.916662  	96.530949 
2359.353540  	96.539603 
2360.790418  	96.540754 
2362.227296  	96.548496 
2363.664174  	96.567098 
2365.101052  	96.564634 
2366.537930  	96.540097 
2367.974808  	96.556944 
2369.411685  	96.591803 
2370.848563  	96.605771 
2372.285441  	96.605829 
2373.722319  	96.574136 
2375.159197  	96.578677 
2376.596075  	96.607785 
2378.032953  	96.620271 
2379.469831  	96.624034 
2380.906709  	96.637503 
2382.343587  	96.663659 
2383.780465  	96.699811 
2385.217343  	96.714779 
2386.654220  	96.716180 
2388.091098  	96.728868 
2389.527976  	96.751733 
2390.964854  	96.770841 
2392.401732  	96.761818 
2393.838610  	96.787885 
2395.275488  	96.832828 
2396.712366  	96.776421 
2398.149244  	96.730370 
2399.586122  	96.766089 
2401.023000  	96.760538 
2402.459878  	96.761848 
2403.896755  	96.797434 
2405.333633  	96.786481 
2406.770511  	96.786857 
2408.207389  	96.812880 
2409.644267  	96.809211 
2411.081145  	96.794638 
2412.518023  	96.797115 
2413.954901  	96.818604 
2415.391779  	96.816310 
2416.828657  	96.809253 
2418.265535  	96.849846 
2419.702413  	96.876190 
2421.139290  	96.891103 
2422.576168  	96.919171 
2424.013046  	96.892922 
2425.449924  	96.864370 
2426.886802  	96.874918 
2428.323680  	96.878181 
2429.760558  	96.907344 
2431.197436  	96.934758 
2432.634314  	96.906293 
2434.071192  	96.874564 
2435.508070  	96.861676 
2436.944948  	96.854547 
2438.381825  	96.868916 
2439.818703  	96.917305 
2441.255581  	96.940984 
2442.692459  	96.885058 
2444.129337  	96.867754 
2445.566215  	96.942949 
2447.003093  	96.990850 
2448.439971  	97.000609 
2449.876849  	96.997040 
2451.313727  	96.990326 
2452.750605  	97.018868 
2454.187483  	97.011272 
2455.624360  	96.986741 
2457.061238  	97.037924 
2458.498116  	97.070786 
2459.934994  	97.050821 
2461.371872  	97.042013 
2462.808750  	97.022612 
2464.245628  	96.994091 
2465.682506  	96.977964 
2467.119384  	96.995922 
2468.556262  	97.051424 
2469.993140  	97.085868 
2471.430018  	97.115028 
2472.866895  	97.146128 
2474.303773  	97.128908 
2475.740651  	97.114361 
2477.177529  	97.129161 
2478.614407  	97.146014 
2480.051285  	97.164323 
2481.488163  	97.154452 
2482.925041  	97.122840 
2484.361919  	97.078604 
2485.798797  	97.052674 
2487.235675  	97.114115 
2488.672553  	97.154361 
2490.109430  	97.122225 
2491.546308  	97.154145 
2492.983186  	97.176784 
2494.420064  	97.124542 
2495.856942  	97.146699 
2497.293820  	97.231052 
2498.730698  	97.265739 
2500.167576  	97.257070 
2501.604454  	97.249294 
2503.041332  	97.248383 
2504.478210  	97.220306 
2505.915088  	97.217210 
2507.351965  	97.266029 
2508.788843  	97.242791 
2510.225721  	97.195818 
2511.662599  	97.253540 
2513.099477  	97.294731 
2514.536355  	97.266904 
2515.973233  	97.277242 
2517.410111  	97.278641 
2518.846989  	97.245886 
2520.283867  	97.289355 
2521.720745  	97.356899 
2523.157623  	97.351610 
2524.594500  	97.346592 
2526.031378  	97.345603 
2527.468256  	97.303644 
2528.905134  	97.273524 
2530.342012  	97.235285 
2531.778890  	97.204763 
2533.215768  	97.246118 
2534.652646  	97.269953 
2536.089524  	97.269895 
2537.526402  	97.282857 
2538.963280  	97.244817 
2540.400158  	97.275559 
2541.837035  	97.392197 
2543.273913  	97.384992 
2544.710791  	97.331515 
2546.147669  	97.349403 
2547.584547  	97.353485 
2549.021425  	97.352557 
2550.458303  	97.348752 
2551.895181  	97.333012 
2553.332059  	97.355169 
2554.768937  	97.365185 
2556.205815  	97.351098 
2557.642693  	97.364482 
2559.079570  	97.374080 
2560.516448  	97.344213 
2561.953326  	97.287278 
2563.390204  	97.272254 
2564.827082  	97.301490 
2566.263960  	97.297375 
2567.700838  	97.307170 
2569.137716  	97.331300 
2570.574594  	97.304417 
2572.011472  	97.327781 
2573.448350  	97.376226 
2574.885228  	97.322569 
2576.322105  	97.294745 
2577.758983  	97.363165 
2579.195861  	97.371860 
2580.632739  	97.307357 
2582.069617  	97.324279 
2583.506495  	97.417444 
2584.943373  	97.417523 
2586.380251  	97.338896 
2587.817129  	97.324673 
2589.254007  	97.353844 
2590.690885  	97.369087 
2592.127763  	97.362749 
2593.564641  	97.334730 
2595.001518  	97.340762 
2596.438396  	97.367848 
2597.875274  	97.371102 
2599.312152  	97.377036 
2600.749030  	97.356303 
2602.185908  	97.313828 
2603.622786  	97.319229 
2605.059664  	97.346299 
2606.496542  	97.357723 
2607.933420  	97.347674 
2609.370298  	97.328786 
2610.807176  	97.350882 
2612.244053  	97.370698 
2613.680931  	97.341155 
2615.117809  	97.330904 
2616.554687  	97.349325 
2617.991565  	97.357057 
2619.428443  	97.360945 
2620.865321  	97.347004 
2622.302199  	97.329166 
2623.739077  	97.353748 
2625.175955  	97.366054 
2626.612833  	97.300444 
2628.049711  	97.254746 
2629.486588  	97.308013 
2630.923466  	97.341908 
2632.360344  	97.294807 
2633.797222  	97.265238 
2635.234100  	97.280201 
2636.670978  	97.297764 
2638.107856  	97.296359 
2639.544734  	97.257420 
2640.981612  	97.217498 
2642.418490  	97.219957 
2643.855368  	97.233748 
2645.292246  	97.224318 
2646.729123  	97.201933 
2648.166001  	97.191878 
2649.602879  	97.193721 
2651.039757  	97.192620 
2652.476635  	97.196071 
2653.913513  	97.197294 
2655.350391  	97.173483 
2656.787269  	97.133059 
2658.224147  	97.110273 
2659.661025  	97.122455 
2661.097903  	97.130547 
2662.534781  	97.116928 
2663.971658  	97.120821 
2665.408536  	97.123371 
2666.845414  	97.106864 
2668.282292  	97.104493 
2669.719170  	97.086846 
2671.156048  	97.055495 
2672.592926  	97.064009 
2674.029804  	97.072061 
2675.466682  	97.053639 
2676.903560  	97.047078 
2678.340438  	97.038725 
2679.777316  	97.012061 
2681.214193  	96.996759 
2682.651071  	97.011588 
2684.087949  	97.015386 
2685.524827  	96.977614 
2686.961705  	96.960595 
2688.398583  	96.967830 
2689.835461  	96.938377 
2691.272339  	96.924116 
2692.709217  	96.942906 
2694.146095  	96.921668 
2695.582973  	96.886216 
2697.019851  	96.884499 
2698.456728  	96.892092 
2699.893606  	96.878492 
2701.330484  	96.837349 
2702.767362  	96.811747 
2704.204240  	96.821385 
2705.641118  	96.817232 
2707.077996  	96.788931 
2708.514874  	96.772586 
2709.951752  	96.784204 
2711.388630  	96.798585 
2712.825508  	96.789037 
2714.262386  	96.779841 
2715.699263  	96.758487 
2717.136141  	96.696159 
2718.573019  	96.668144 
2720.009897  	96.692732 
2721.446775  	96.682584 
2722.883653  	96.651752 
2724.320531  	96.648359 
2725.757409  	96.640956 
2727.194287  	96.629807 
2728.631165  	96.631999 
2730.068043  	96.616404 
2731.504921  	96.599271 
2732.941798  	96.623028 
2734.378676  	96.630607 
2735.815554  	96.583313 
2737.252432  	96.560065 
2738.689310  	96.566990 
2740.126188  	96.536416 
2741.563066  	96.505914 
2742.999944  	96.507605 
2744.436822  	96.485461 
2745.873700  	96.443655 
2747.310578  	96.426485 
2748.747456  	96.415807 
2750.184333  	96.394464 
2751.621211  	96.375090 
2753.058089  	96.351262 
2754.494967  	96.333362 
2755.931845  	96.338222 
2757.368723  	96.323358 
2758.805601  	96.281054 
2760.242479  	96.266427 
2761.679357  	96.262509 
2763.116235  	96.235831 
2764.553113  	96.218926 
2765.989991  	96.227848 
2767.426868  	96.246057 
2768.863746  	96.235465 
2770.300624  	96.176097 
2771.737502  	96.122436 
2773.174380  	96.106617 
2774.611258  	96.107855 
2776.048136  	96.099006 
2777.485014  	96.054028 
2778.921892  	96.024525 
2780.358770  	96.041994 
2781.795648  	96.020078 
2783.232526  	95.961316 
2784.669403  	95.944565 
2786.106281  	95.947175 
2787.543159  	95.928892 
2788.980037  	95.900903 
2790.416915  	95.887182 
2791.853793  	95.874198 
2793.290671  	95.826132 
2794.727549  	95.786967 
2796.164427  	95.781225 
2797.601305  	95.754924 
2799.038183  	95.724806 
2800.475061  	95.705450 
2801.911938  	95.661951 
2803.348816  	95.622623 
2804.785694  	95.602250 
2806.222572  	95.585297 
2807.659450  	95.578259 
2809.096328  	95.550755 
2810.533206  	95.492157 
2811.970084  	95.446841 
2813.406962  	95.429056 
2814.843840  	95.415822 
2816.280718  	95.388558 
2817.717596  	95.356711 
2819.154474  	95.327113 
2820.591351  	95.293117 
2822.028229  	95.266916 
2823.465107  	95.238649 
2824.901985  	95.205363 
2826.338863  	95.191050 
2827.775741  	95.155803 
2829.212619  	95.081187 
2830.649497  	95.023083 
2832.086375  	94.988709 
2833.523253  	94.963430 
2834.960131  	94.948922 
2836.397009  	94.927024 
2837.833886  	94.882979 
2839.270764  	94.821515 
2840.707642  	94.779422 
2842.144520  	94.759422 
2843.581398  	94.719076 
2845.018276  	94.683135 
2846.455154  	94.650938 
2847.892032  	94.580379 
2849.328910  	94.516815 
2850.765788  	94.457867 
2852.202666  	94.384918 
2853.639544  	94.376946 
2855.076421  	94.392075 
2856.513299  	94.336523 
2857.950177  	94.265485 
2859.387055  	94.218193 
2860.823933  	94.176027 
2862.260811  	94.141227 
2863.697689  	94.105132 
2865.134567  	94.067049 
2866.571445  	94.028702 
2868.008323  	93.979781 
2869.445201  	93.925271 
2870.882079  	93.883618 
2872.318956  	93.860169 
2873.755834  	93.814644 
2875.192712  	93.741070 
2876.629590  	93.690900 
2878.066468  	93.645926 
2879.503346  	93.590292 
2880.940224  	93.563975 
2882.377102  	93.534579 
2883.813980  	93.461496 
2885.250858  	93.373608 
2886.687736  	93.318181 
2888.124614  	93.314001 
2889.561491  	93.280297 
2890.998369  	93.162706 
2892.435247  	93.059232 
2893.872125  	93.025347 
2895.309003  	92.998250 
2896.745881  	92.935262 
2898.182759  	92.862407 
2899.619637  	92.804800 
2901.056515  	92.720281 
2902.493393  	92.618330 
2903.930271  	92.572521 
2905.367149  	92.545555 
2906.804026  	92.489254 
2908.240904  	92.413862 
2909.677782  	92.298918 
2911.114660  	92.204768 
2912.551538  	92.184221 
2913.988416  	92.137728 
2915.425294  	92.025837 
2916.862172  	91.899578 
2918.299050  	91.780982 
2919.735928  	91.710362 
2921.172806  	91.690574 
2922.609684  	91.648944 
2924.046561  	91.553864 
2925.483439  	91.469821 
2926.920317  	91.446328 
2928.357195  	91.393135 
2929.794073  	91.259028 
2931.230951  	91.149185 
2932.667829  	91.092902 
2934.104707  	91.046571 
2935.541585  	91.002309 
2936.978463  	90.906700 
2938.415341  	90.766510 
2939.852219  	90.679055 
2941.289096  	90.644960 
2942.725974  	90.598087 
2944.162852  	90.520608 
2945.599730  	90.433962 
2947.036608  	90.341369 
2948.473486  	90.226950 
2949.910364  	90.122549 
2951.347242  	90.046484 
2952.784120  	89.967278 
2954.220998  	89.883696 
2955.657876  	89.779972 
2957.094754  	89.648958 
2958.531631  	89.535703 
2959.968509  	89.433673 
2961.405387  	89.342264 
2962.842265  	89.287480 
2964.279143  	89.216492 
2965.716021  	89.107560 
2967.152899  	89.002385 
2968.589777  	88.890847 
2970.026655  	88.745486 
2971.463533  	88.603663 
2972.900411  	88.524870 
2974.337289  	88.443105 
2975.774166  	88.281245 
2977.211044  	88.146854 
2978.647922  	88.072368 
2980.084800  	87.963019 
2981.521678  	87.842420 
2982.958556  	87.725393 
2984.395434  	87.604054 
2985.832312  	87.506637 
2987.269190  	87.385571 
2988.706068  	87.267003 
2990.142946  	87.173625 
2991.579824  	87.018218 
2993.016701  	86.866879 
2994.453579  	86.754328 
2995.890457  	86.602104 
2997.327335  	86.485547 
2998.764213  	86.397081 
3000.201091  	86.259589 
3001.637969  	86.123476 
3003.074847  	85.957040 
3004.511725  	85.775720 
3005.948603  	85.658910 
3007.385481  	85.526768 
3008.822359  	85.372369 
3010.259236  	85.247371 
3011.696114  	85.110331 
3013.132992  	84.954510 
3014.569870  	84.762717 
3016.006748  	84.562049 
3017.443626  	84.414814 
3018.880504  	84.262034 
3020.317382  	84.084664 
3021.754260  	83.906541 
3023.191138  	83.734723 
3024.628016  	83.618588 
3026.064894  	83.486755 
3027.501771  	83.277477 
3028.938649  	83.078440 
3030.375527  	82.912427 
3031.812405  	82.754924 
3033.249283  	82.570471 
3034.686161  	82.377840 
3036.123039  	82.251349 
3037.559917  	82.088988 
3038.996795  	81.879649 
3040.433673  	81.734503 
3041.870551  	81.533460 
3043.307429  	81.288136 
3044.744306  	81.123261 
3046.181184  	80.931700 
3047.618062  	80.705901 
3049.054940  	80.489364 
3050.491818  	80.259767 
3051.928696  	80.083214 
3053.365574  	79.903970 
3054.802452  	79.685468 
3056.239330  	79.501106 
3057.676208  	79.299670 
3059.113086  	79.087721 
3060.549964  	78.885092 
3061.986842  	78.650132 
3063.423719  	78.429317 
3064.860597  	78.206611 
3066.297475  	77.992399 
3067.734353  	77.815369 
3069.171231  	77.597369 
3070.608109  	77.390033 
3072.044987  	77.187411 
3073.481865  	76.939683 
3074.918743  	76.751499 
3076.355621  	76.530404 
3077.792499  	76.242914 
3079.229377  	76.007051 
3080.666254  	75.720102 
3082.103132  	75.466124 
3083.540010  	75.327944 
3084.976888  	75.109215 
3086.413766  	74.863616 
3087.850644  	74.622512 
3089.287522  	74.317276 
3090.724400  	74.058120 
3092.161278  	73.791714 
3093.598156  	73.521351 
3095.035034  	73.305747 
3096.471912  	73.016105 
3097.908789  	72.755305 
3099.345667  	72.558253 
3100.782545  	72.284464 
3102.219423  	72.035374 
3103.656301  	71.800597 
3105.093179  	71.542587 
3106.530057  	71.326095 
3107.966935  	71.051951 
3109.403813  	70.748930 
3110.840691  	70.471420 
3112.277569  	70.211331 
3113.714447  	70.015646 
3115.151324  	69.720067 
3116.588202  	69.362656 
3118.025080  	69.124682 
3119.461958  	68.859224 
3120.898836  	68.601872 
3122.335714  	68.359883 
3123.772592  	68.011591 
3125.209470  	67.771876 
3126.646348  	67.581545 
3128.083226  	67.279555 
3129.520104  	67.014620 
3130.956982  	66.727148 
3132.393859  	66.442168 
3133.830737  	66.201442 
3135.267615  	65.851123 
3136.704493  	65.547304 
3138.141371  	65.297060 
3139.578249  	64.977572 
3141.015127  	64.746930 
3142.452005  	64.510421 
3143.888883  	64.198051 
3145.325761  	63.919891 
3146.762639  	63.625508 
3148.199517  	63.410824 
3149.636394  	63.234244 
3151.073272  	62.927112 
3152.510150  	62.624519 
3153.947028  	62.377252 
3155.383906  	62.137704 
3156.820784  	61.848323 
3158.257662  	61.505228 
3159.694540  	61.296332 
3161.131418  	61.084515 
3162.568296  	60.761395 
3164.005174  	60.522288 
3165.442052  	60.256625 
3166.878929  	59.996089 
3168.315807  	59.816572 
3169.752685  	59.516491 
3171.189563  	59.231530 
3172.626441  	58.991535 
3174.063319  	58.750106 
3175.500197  	58.624713 
3176.937075  	58.306804 
3178.373953  	57.916519 
3179.810831  	57.812835 
3181.247709  	57.634287 
3182.684587  	57.387358 
3184.121464  	57.209404 
3185.558342  	56.912185 
3186.995220  	56.697420 
3188.432098  	56.499781 
3189.868976  	56.187779 
3191.305854  	55.995808 
3192.742732  	55.811791 
3194.179610  	55.616729 
3195.616488  	55.420971 
3197.053366  	55.089429 
3198.490244  	54.884378 
3199.927122  	54.778820 
3201.363999  	54.613590 
3202.800877  	54.487998 
3204.237755  	54.231955 
3205.674633  	53.995620 
3207.111511  	53.948586 
3208.548389  	53.807897 
3209.985267  	53.628442 
3211.422145  	53.461602 
3212.859023  	53.290554 
3214.295901  	53.178207 
3215.732779  	52.965745 
3217.169657  	52.855557 
3218.606534  	52.839322 
3220.043412  	52.614842 
3221.480290  	52.502738 
3222.917168  	52.435246 
3224.354046  	52.210302 
3225.790924  	52.111005 
3227.227802  	51.965543 
3228.664680  	51.863696 
3230.101558  	51.940041 
3231.538436  	51.784726 
3232.975314  	51.634336 
3234.412192  	51.586555 
3235.849069  	51.408311 
3237.285947  	51.370566 
3238.722825  	51.290465 
3240.159703  	51.118399 
3241.596581  	51.167722 
3243.033459  	51.157308 
3244.470337  	51.081997 
3245.907215  	51.004875 
3247.344093  	50.830044 
3248.780971  	50.862988 
3250.217849  	50.913737 
3251.654727  	50.806186 
3253.091604  	50.801184 
3254.528482  	50.756375 
3255.965360  	50.706468 
3257.402238  	50.673938 
3258.839116  	50.532130 
3260.275994  	50.542908 
3261.712872  	50.578197 
3263.149750  	50.529621 
3264.586628  	50.542399 
3266.023506  	50.410474 
3267.460384  	50.340653 
3268.897262  	50.418581 
3270.334139  	50.358307 
3271.771017  	50.372994 
3273.207895  	50.378349 
3274.644773  	50.296230 
3276.081651  	50.363915 
3277.518529  	50.313102 
3278.955407  	50.241969 
3280.392285  	50.339137 
3281.829163  	50.301511 
3283.266041  	50.238970 
3284.702919  	50.204531 
3286.139797  	50.193677 
3287.576674  	50.323781 
3289.013552  	50.282764 
3290.450430  	50.209472 
3291.887308  	50.309621 
3293.324186  	50.246933 
3294.761064  	50.177349 
3296.197942  	50.207487 
3297.634820  	50.193921 
3299.071698  	50.226153 
3300.508576  	50.168578 
3301.945454  	50.111634 
3303.382332  	50.131932 
3304.819210  	50.030075 
3306.256087  	50.041608 
3307.692965  	50.120216 
3309.129843  	50.091722 
3310.566721  	50.140511 
3312.003599  	50.096153 
3313.440477  	50.040548 
3314.877355  	50.092605 
3316.314233  	49.984213 
3317.751111  	49.961837 
3319.187989  	50.029300 
3320.624867  	49.981823 
3322.061745  	50.052024 
3323.498622  	50.026431 
3324.935500  	49.909777 
3326.372378  	49.959290 
3327.809256  	49.907519 
3329.246134  	49.906609 
3330.683012  	50.011088 
3332.119890  	49.953578 
3333.556768  	49.963890 
3334.993646  	49.959664 
3336.430524  	49.878856 
3337.867402  	49.926084 
3339.304280  	49.872015 
3340.741157  	49.830077 
3342.178035  	49.906360 
3343.614913  	49.901986 
3345.051791  	49.998298 
3346.488669  	50.065616 
3347.925547  	49.998906 
3349.362425  	50.017790 
3350.799303  	50.027614 
3352.236181  	50.130382 
3353.673059  	50.194671 
3355.109937  	50.026932 
3356.546815  	50.090192 
3357.983692  	50.198697 
3359.420570  	50.104370 
3360.857448  	50.187640 
3362.294326  	50.248389 
3363.731204  	50.289817 
3365.168082  	50.461166 
3366.604960  	50.410129 
3368.041838  	50.340831 
3369.478716  	50.405597 
3370.915594  	50.465414 
3372.352472  	50.638401 
3373.789350  	50.714517 
3375.226227  	50.729980 
3376.663105  	50.833953 
3378.099983  	50.828140 
3379.536861  	50.951325 
3380.973739  	51.140894 
3382.410617  	51.139565 
3383.847495  	51.252532 
3385.284373  	51.367273 
3386.721251  	51.386983 
3388.158129  	51.516541 
3389.595007  	51.597317 
3391.031885  	51.703547 
3392.468762  	51.869918 
3393.905640  	51.973575 
3395.342518  	52.137103 
3396.779396  	52.218646 
3398.216274  	52.269567 
3399.653152  	52.443209 
3401.090030  	52.534752 
3402.526908  	52.688488 
3403.963786  	52.904570 
3405.400664  	53.025696 
3406.837542  	53.234518 
3408.274420  	53.372785 
3409.711297  	53.428600 
3411.148175  	53.569642 
3412.585053  	53.659695 
3414.021931  	53.871097 
3415.458809  	54.135678 
3416.895687  	54.286772 
3418.332565  	54.551652 
3419.769443  	54.696612 
3421.206321  	54.760502 
3422.643199  	55.029332 
3424.080077  	55.173409 
3425.516955  	55.312249 
3426.953832  	55.547905 
3428.390710  	55.662233 
3429.827588  	55.892336 
3431.264466  	56.092728 
3432.701344  	56.205565 
3434.138222  	56.490288 
3435.575100  	56.630663 
3437.011978  	56.788504 
3438.448856  	57.180466 
3439.885734  	57.359252 
3441.322612  	57.456740 
3442.759490  	57.658165 
3444.196367  	57.849693 
3445.633245  	58.078241 
3447.070123  	58.178412 
3448.507001  	58.320259 
3449.943879  	58.682052 
3451.380757  	58.942897 
3452.817635  	59.135962 
3454.254513  	59.320018 
3455.691391  	59.497850 
3457.128269  	59.744179 
3458.565147  	59.871533 
3460.002025  	60.067024 
3461.438902  	60.418288 
3462.875780  	60.625554 
3464.312658  	60.859215 
3465.749536  	61.079646 
3467.186414  	61.194932 
3468.623292  	61.463018 
3470.060170  	61.690135 
3471.497048  	61.865698 
3472.933926  	62.103407 
3474.370804  	62.246357 
3475.807682  	62.544051 
3477.244560  	62.866573 
3478.681437  	62.955256 
3480.118315  	63.158531 
3481.555193  	63.379693 
3482.992071  	63.525846 
3484.428949  	63.795867 
3485.865827  	64.016701 
3487.302705  	64.267750 
3488.739583  	64.534058 
3490.176461  	64.652058 
3491.613339  	64.842369 
3493.050217  	65.022838 
3494.487095  	65.194489 
3495.923972  	65.521267 
3497.360850  	65.757664 
3498.797728  	65.961046 
3500.234606  	66.183857 
3501.671484  	66.296781 
3503.108362  	66.544157 
3504.545240  	66.878866 
3505.982118  	67.155321 
3507.418996  	67.429312 
3508.855874  	67.587309 
3510.292752  	67.782603 
3511.729630  	68.022747 
3513.166507  	68.159064 
3514.603385  	68.438561 
3516.040263  	68.748138 
3517.477141  	68.936980 
3518.914019  	69.175275 
3520.350897  	69.375174 
3521.787775  	69.576274 
3523.224653  	69.775231 
3524.661531  	69.892874 
3526.098409  	70.175211 
3527.535287  	70.467856 
3528.972165  	70.662216 
3530.409043  	70.993274 
3531.845920  	71.275921 
3533.282798  	71.482266 
3534.719676  	71.701011 
3536.156554  	71.835072 
3537.593432  	72.063757 
3539.030310  	72.361350 
3540.467188  	72.601447 
3541.904066  	72.875420 
3543.340944  	73.062424 
3544.777822  	73.195550 
3546.214700  	73.412018 
3547.651578  	73.678082 
3549.088455  	74.009489 
3550.525333  	74.244110 
3551.962211  	74.419741 
3553.399089  	74.671138 
3554.835967  	74.807030 
3556.272845  	75.009006 
3557.709723  	75.351003 
3559.146601  	75.501917 
3560.583479  	75.639566 
3562.020357  	75.945936 
3563.457235  	76.251935 
3564.894113  	76.472306 
3566.330990  	76.525723 
3567.767868  	76.654422 
3569.204746  	77.013103 
3570.641624  	77.283994 
3572.078502  	77.550832 
3573.515380  	77.800665 
3574.952258  	77.989531 
3576.389136  	78.238108 
3577.826014  	78.414791 
3579.262892  	78.600115 
3580.699770  	78.869871 
3582.136648  	79.034057 
3583.573525  	79.233571 
3585.010403  	79.428360 
3586.447281  	79.498696 
3587.884159  	79.731905 
3589.321037  	80.078121 
3590.757915  	80.356598 
3592.194793  	80.585488 
3593.631671  	80.684925 
3595.068549  	80.876736 
3596.505427  	81.130416 
3597.942305  	81.246312 
3599.379183  	81.460197 
3600.816060  	81.683884 
3602.252938  	81.853540 
3603.689816  	82.137946 
3605.126694  	82.343848 
3606.563572  	82.490347 
3608.000450  	82.676463 
3609.437328  	82.791031 
3610.874206  	83.019457 
3612.311084  	83.299794 
3613.747962  	83.466728 
3615.184840  	83.656120 
3616.621718  	83.867653 
3618.058595  	84.083142 
3619.495473  	84.274983 
3620.932351  	84.402331 
3622.369229  	84.641112 
3623.806107  	84.901201 
3625.242985  	85.073602 
3626.679863  	85.224633 
3628.116741  	85.369534 
3629.553619  	85.655196 
3630.990497  	85.992062 
3632.427375  	86.112680 
3633.864253  	86.268791 
3635.301130  	86.519632 
3636.738008  	86.796827 
3638.174886  	87.094576 
3639.611764  	87.310610 
3641.048642  	87.495183 
3642.485520  	87.717778 
3643.922398  	87.949059 
3645.359276  	88.211626 
3646.796154  	88.405926 
3648.233032  	88.560123 
3649.669910  	88.809895 
3651.106788  	88.985232 
3652.543665  	89.270093 
3653.980543  	89.620790 
3655.417421  	89.897540 
3656.854299  	90.242848 
3658.291177  	90.563863 
3659.728055  	90.772963 
3661.164933  	91.003914 
3662.601811  	91.224011 
3664.038689  	91.487118 
3665.475567  	91.758586 
3666.912445  	91.993329 
3668.349323  	92.231964 
3669.786200  	92.413390 
3671.223078  	92.598078 
3672.659956  	92.928112 
3674.096834  	93.215791 
3675.533712  	93.418693 
3676.970590  	93.606804 
3678.407468  	93.806529 
3679.844346  	94.016751 
3681.281224  	94.215934 
3682.718102  	94.432571 
3684.154980  	94.598968 
3685.591858  	94.729655 
3687.028735  	94.850836 
3688.465613  	94.938449 
3689.902491  	94.937012 
3691.339369  	95.013862 
3692.776247  	95.120147 
3694.213125  	95.239792 
3695.650003  	95.413429 
3697.086881  	95.570122 
3698.523759  	95.684628 
3699.960637  	95.862684 
3701.397515  	95.863915 
3702.834393  	95.827780 
3704.271270  	95.867990 
3705.708148  	95.945892 
3707.145026  	96.177049 
3708.581904  	96.336501 
3710.018782  	96.228969 
3711.455660  	96.152947 
3712.892538  	96.150593 
3714.329416  	96.182868 
3715.766294  	96.281217 
3717.203172  	96.369679 
3718.640050  	96.511860 
3720.076928  	96.672504 
3721.513805  	96.737868 
3722.950683  	96.704627 
3724.387561  	96.586461 
3725.824439  	96.540623 
3727.261317  	96.596109 
3728.698195  	96.738810 
3730.135073  	96.896732 
3731.571951  	96.945320 
3733.008829  	96.930444 
3734.445707  	96.953333 
3735.882585  	96.877680 
3737.319463  	96.851970 
3738.756340  	96.933767 
3740.193218  	97.006526 
3741.630096  	97.047182 
3743.066974  	97.125558 
3744.503852  	97.163659 
3745.940730  	97.070932 
3747.377608  	97.070589 
3748.814486  	97.162582 
3750.251364  	97.216816 
3751.688242  	97.192135 
3753.125120  	97.248913 
3754.561998  	97.297108 
3755.998875  	97.313714 
3757.435753  	97.367253 
3758.872631  	97.428014 
3760.309509  	97.444638 
3761.746387  	97.448853 
3763.183265  	97.518309 
3764.620143  	97.591614 
3766.057021  	97.601810 
3767.493899  	97.591540 
3768.930777  	97.653792 
3770.367655  	97.678835 
3771.804533  	97.647245 
3773.241411  	97.674808 
3774.678288  	97.703344 
3776.115166  	97.726587 
3777.552044  	97.769856 
3778.988922  	97.802520 
3780.425800  	97.799824 
3781.862678  	97.801576 
3783.299556  	97.816860 
3784.736434  	97.811972 
3786.173312  	97.806860 
3787.610190  	97.798549 
3789.047068  	97.804737 
3790.483946  	97.817436 
3791.920823  	97.863618 
3793.357701  	97.862018 
3794.794579  	97.873888 
3796.231457  	97.887389 
3797.668335  	97.829544 
3799.105213  	97.842788 
3800.542091  	97.918140 
3801.978969  	97.895479 
3803.415847  	97.847392 
3804.852725  	97.906094 
3806.289603  	97.961853 
3807.726481  	97.888224 
3809.163358  	97.834176 
3810.600236  	97.862339 
3812.037114  	97.828195 
3813.473992  	97.835351 
3814.910870  	97.956883 
3816.347748  	97.942276 
3817.784626  	97.860307 
3819.221504  	97.987261 
3820.658382  	98.085024 
3822.095260  	97.931779 
3823.532138  	97.842315 
3824.969016  	97.893700 
3826.405893  	97.917265 
3827.842771  	97.893624 
3829.279649  	97.907222 
3830.716527  	97.903464 
3832.153405  	97.863599 
3833.590283  	97.905340 
3835.027161  	97.971942 
3836.464039  	97.951423 
3837.900917  	97.864838 
3839.337795  	97.825035 
3840.774673  	97.860867 
3842.211551  	97.847003 
3843.648428  	97.821046 
3845.085306  	97.865871 
3846.522184  	97.919302 
3847.959062  	98.023558 
3849.395940  	98.140037 
3850.832818  	98.112853 
3852.269696  	98.077347 
3853.706574  	98.016756 
3855.143452  	97.781449 
3856.580330  	97.755054 
3858.017208  	97.823520 
3859.454086  	97.922448 
3860.890963  	98.059697 
3862.327841  	98.105052 
3863.764719  	98.088593 
3865.201597  	98.040592 
3866.638475  	97.910165 
3868.075353  	97.944672 
3869.512231  	98.008675 
3870.949109  	97.916439 
3872.385987  	98.001003 
3873.822865  	98.047078 
3875.259743  	97.904191 
3876.696621  	97.913858 
3878.133498  	97.978234 
3879.570376  	97.992572 
3881.007254  	98.057821 
3882.444132  	98.073680 
3883.881010  	98.062179 
3885.317888  	98.013082 
3886.754766  	97.877453 
3888.191644  	97.957120 
3889.628522  	98.066007 
3891.065400  	97.998831 
3892.502278  	97.944255 
3893.939156  	97.990933 
3895.376033  	98.010529 
3896.812911  	98.042692 
3898.249789  	98.068210 
3899.686667  	98.042632 
3901.123545  	98.008155 
3902.560423  	97.994373 
3903.997301  	97.958380 
3905.434179  	97.926624 
3906.871057  	97.973683 
3908.307935  	97.999547 
3909.744813  	97.990565 
3911.181691  	98.054789 
3912.618568  	98.114569 
3914.055446  	98.143801 
3915.492324  	98.132272 
3916.929202  	98.073048 
3918.366080  	98.028522 
3919.802958  	98.031816 
3921.239836  	97.995966 
3922.676714  	97.997687 
3924.113592  	98.043841 
3925.550470  	98.019111 
3926.987348  	98.029241 
3928.424226  	98.077559 
3929.861103  	98.047827 
3931.297981  	98.014611 
3932.734859  	98.037508 
3934.171737  	98.042418 
3935.608615  	98.024117 
3937.045493  	98.035153 
3938.482371  	98.046599 
3939.919249  	98.039518 
3941.356127  	98.009219 
3942.793005  	97.977612 
3944.229883  	97.962562 
3945.666761  	97.988797 
3947.103638  	97.994052 
3948.540516  	97.982399 
3949.977394  	98.000366 
3951.414272  	98.046458 
3952.851150  	98.065626 
3954.288028  	98.057451 
3955.724906  	98.040280 
3957.161784  	98.027832 
3958.598662  	98.021772 
3960.035540  	98.023042 
3961.472418  	98.001988 
3962.909296  	97.976859 
3964.346173  	98.007583 
3965.783051  	98.030061 
3967.219929  	98.001327 
3968.656807  	97.995922 
3970.093685  	98.002751 
3971.530563  	98.021279 
3972.967441  	98.077167 
3974.404319  	98.080215 
3975.841197  	98.046042 
3977.278075  	98.052925 
3978.714953  	98.070954 
3980.151831  	98.098542 
3981.588708  	98.095315 
3983.025586  	98.047809 
3984.462464  	98.055003 
3985.899342  	98.068746 
3987.336220  	98.036019 
3988.773098  	98.037911 
3990.209976  	98.051513 
3991.646854  	98.041941 
3993.083732  	98.042754 
3994.520610  	98.052920 
3995.957488  	98.076696 
3997.394366  	98.096795 
3998.831244  	98.101350 
4000.268121  	98.094337 