##TITLE=No Description
##DATA TYPE=INFRARED SPECTRUM
##XUNITS=1/CM
##YUNITS=%T
399.452061  	48.810965 
400.888939  	48.709136 
402.325817  	47.293670 
403.762695  	45.774613 
405.199573  	45.326539 
406.636451  	44.375722 
408.073328  	43.411757 
409.510206  	42.586547 
410.947084  	41.733467 
412.383962  	42.584615 
413.820840  	43.127771 
415.257718  	41.929414 
416.694596  	40.504589 
418.131474  	38.534002 
419.568352  	37.344030 
421.005230  	37.537085 
422.442108  	37.293198 
423.878986  	37.215959 
425.315863  	36.727789 
426.752741  	35.548691 
428.189619  	35.027791 
429.626497  	35.019007 
431.063375  	34.610739 
432.500253  	33.930164 
433.937131  	33.494687 
435.374009  	33.227291 
436.810887  	32.725694 
438.247765  	32.149986 
439.684643  	31.639072 
441.121521  	30.790062 
442.558398  	30.010517 
443.995276  	30.134468 
445.432154  	30.496079 
446.869032  	30.400988 
448.305910  	30.356589 
449.742788  	30.743183 
451.179666  	30.715417 
452.616544  	30.187358 
454.053422  	30.191238 
455.490300  	30.623703 
456.927178  	30.885465 
458.364056  	31.122696 
459.800933  	31.699129 
461.237811  	32.542407 
462.674689  	33.152405 
464.111567  	33.752480 
465.548445  	34.748962 
466.985323  	35.384205 
468.422201  	35.997699 
469.859079  	37.579247 
471.295957  	39.376879 
472.732835  	41.017252 
474.169713  	42.578443 
475.606591  	43.823881 
477.043469  	45.558151 
478.480346  	47.681502 
479.917224  	49.509481 
481.354102  	51.755326 
482.790980  	54.037854 
484.227858  	55.773340 
485.664736  	57.604953 
487.101614  	59.537063 
488.538492  	61.426071 
489.975370  	62.949500 
491.412248  	64.011966 
492.849126  	65.266220 
494.286004  	66.549358 
495.722881  	67.882563 
497.159759  	69.160682 
498.596637  	69.702288 
500.033515  	70.368502 
501.470393  	71.413298 
502.907271  	72.121916 
504.344149  	72.927356 
505.781027  	73.575044 
507.217905  	73.930800 
508.654783  	74.541340 
510.091661  	75.017129 
511.528539  	75.551802 
512.965416  	76.061636 
514.402294  	76.038073 
515.839172  	76.388885 
517.276050  	76.994849 
518.712928  	77.031903 
520.149806  	77.185832 
521.586684  	77.453942 
523.023562  	77.512198 
524.460440  	77.575060 
525.897318  	77.582673 
527.334196  	77.680331 
528.771074  	77.707381 
530.207951  	77.592764 
531.644829  	77.732397 
533.081707  	77.875287 
534.518585  	77.858792 
535.955463  	77.799431 
537.392341  	77.631897 
538.829219  	77.628696 
540.266097  	77.712396 
541.702975  	77.685462 
543.139853  	77.633320 
544.576731  	77.442565 
546.013609  	77.479817 
547.450486  	77.757215 
548.887364  	77.676486 
550.324242  	77.625167 
551.761120  	77.755329 
553.197998  	77.707634 
554.634876  	77.717942 
556.071754  	77.723339 
557.508632  	77.724773 
558.945510  	77.955282 
560.382388  	78.100119 
561.819266  	78.104878 
563.256144  	78.120298 
564.693021  	78.107849 
566.129899  	78.171682 
567.566777  	78.266267 
569.003655  	78.366918 
570.440533  	78.450841 
571.877411  	78.533484 
573.314289  	78.841548 
574.751167  	79.057259 
576.188045  	79.054741 
577.624923  	79.260258 
579.061801  	79.372643 
580.498679  	79.348965 
581.935556  	79.593078 
583.372434  	79.788312 
584.809312  	79.865724 
586.246190  	80.040608 
587.683068  	80.234652 
589.119946  	80.449988 
590.556824  	80.525111 
591.993702  	80.553324 
593.430580  	80.792705 
594.867458  	80.963971 
596.304336  	81.068111 
597.741214  	81.216422 
599.178091  	81.285145 
600.614969  	81.399693 
602.051847  	81.452688 
603.488725  	81.485059 
604.925603  	81.719112 
606.362481  	81.933725 
607.799359  	82.069256 
609.236237  	82.250256 
610.673115  	82.414719 
612.109993  	82.497088 
613.546871  	82.570288 
614.983749  	82.644624 
616.420626  	82.822845 
617.857504  	82.979617 
619.294382  	83.095609 
620.731260  	83.233972 
622.168138  	83.287329 
623.605016  	83.371746 
625.041894  	83.481673 
626.478772  	83.548859 
627.915650  	83.647439 
629.352528  	83.758294 
630.789406  	83.848524 
632.226284  	83.921688 
633.663161  	83.967632 
635.100039  	83.998050 
636.536917  	84.005458 
637.973795  	84.029186 
639.410673  	84.143253 
640.847551  	84.229182 
642.284429  	84.272154 
643.721307  	84.384037 
645.158185  	84.499064 
646.595063  	84.600146 
648.031941  	84.695617 
649.468819  	84.762381 
650.905696  	84.876488 
652.342574  	84.965843 
653.779452  	85.010579 
655.216330  	85.076649 
656.653208  	85.117101 
658.090086  	85.143352 
659.526964  	85.207806 
660.963842  	85.256950 
662.400720  	85.311107 
663.837598  	85.360987 
665.274476  	85.327875 
666.711354  	85.336767 
668.148231  	85.427551 
669.585109  	85.532941 
671.021987  	85.529922 
672.458865  	85.559622 
673.895743  	85.655161 
675.332621  	85.676000 
676.769499  	85.656699 
678.206377  	85.712121 
679.643255  	85.709771 
681.080133  	85.708209 
682.517011  	85.769689 
683.953889  	85.775694 
685.390766  	85.759364 
686.827644  	85.769271 
688.264522  	85.809352 
689.701400  	85.867386 
691.138278  	85.872667 
692.575156  	85.874612 
694.012034  	85.901785 
695.448912  	85.855632 
696.885790  	85.884418 
698.322668  	85.947530 
699.759546  	85.898436 
701.196424  	85.839153 
702.633301  	85.833832 
704.070179  	85.856217 
705.507057  	85.880475 
706.943935  	85.844573 
708.380813  	85.811936 
709.817691  	85.804371 
711.254569  	85.818429 
712.691447  	85.854701 
714.128325  	85.806732 
715.565203  	85.750924 
717.002081  	85.777606 
718.438959  	85.761091 
719.875837  	85.759254 
721.312714  	85.747316 
722.749592  	85.661026 
724.186470  	85.632433 
725.623348  	85.639991 
727.060226  	85.546214 
728.497104  	85.508789 
729.933982  	85.502016 
731.370860  	85.492087 
732.807738  	85.455343 
734.244616  	85.351595 
735.681494  	85.331995 
737.118372  	85.368873 
738.555249  	85.326256 
739.992127  	85.225359 
741.429005  	85.143762 
742.865883  	85.152425 
744.302761  	85.099024 
745.739639  	84.965444 
747.176517  	84.943389 
748.613395  	84.894384 
750.050273  	84.824591 
751.487151  	84.821937 
752.924029  	84.689082 
754.360907  	84.587450 
755.797784  	84.590633 
757.234662  	84.493151 
758.671540  	84.453288 
760.108418  	84.404872 
761.545296  	84.231867 
762.982174  	84.143296 
764.419052  	84.025410 
765.855930  	83.842366 
767.292808  	83.648649 
768.729686  	83.256623 
770.166564  	82.816584 
771.603442  	82.376267 
773.040319  	81.774451 
774.477197  	81.153639 
775.914075  	80.443155 
777.350953  	79.645166 
778.787831  	78.966732 
780.224709  	78.254581 
781.661587  	77.560481 
783.098465  	76.988428 
784.535343  	76.386238 
785.972221  	75.877402 
787.409099  	75.473591 
788.845977  	75.093003 
790.282854  	74.803063 
791.719732  	74.518194 
793.156610  	74.299067 
794.593488  	74.150851 
796.030366  	73.969924 
797.467244  	73.915771 
798.904122  	73.895604 
800.341000  	73.823924 
801.777878  	73.891327 
803.214756  	74.016012 
804.651634  	74.161299 
806.088512  	74.335554 
807.525389  	74.464168 
808.962267  	74.690804 
810.399145  	74.981218 
811.836023  	75.254587 
813.272901  	75.616790 
814.709779  	75.986205 
816.146657  	76.325147 
817.583535  	76.666712 
819.020413  	77.022088 
820.457291  	77.474136 
821.894169  	77.925856 
823.331047  	78.357840 
824.767924  	78.858727 
826.204802  	79.340107 
827.641680  	79.849957 
829.078558  	80.407889 
830.515436  	80.906101 
831.952314  	81.375787 
833.389192  	81.822042 
834.826070  	82.323818 
836.262948  	82.905046 
837.699826  	83.417480 
839.136704  	83.954058 
840.573582  	84.533377 
842.010459  	85.023439 
843.447337  	85.507566 
844.884215  	85.993705 
846.321093  	86.445397 
847.757971  	86.856544 
849.194849  	87.187805 
850.631727  	87.563892 
852.068605  	87.943749 
853.505483  	88.198026 
854.942361  	88.465070 
856.379239  	88.739838 
857.816117  	88.934107 
859.252994  	89.069261 
860.689872  	89.144594 
862.126750  	89.269229 
863.563628  	89.386498 
865.000506  	89.354637 
866.437384  	89.349698 
867.874262  	89.408960 
869.311140  	89.403649 
870.748018  	89.351078 
872.184896  	89.259955 
873.621774  	89.184718 
875.058652  	89.097840 
876.495529  	88.954676 
877.932407  	88.893591 
879.369285  	88.815197 
880.806163  	88.619777 
882.243041  	88.469952 
883.679919  	88.329797 
885.116797  	88.172291 
886.553675  	88.035331 
887.990553  	87.830837 
889.427431  	87.611893 
890.864309  	87.365183 
892.301187  	87.056239 
893.738064  	86.813479 
895.174942  	86.562046 
896.611820  	86.262471 
898.048698  	86.008527 
899.485576  	85.758744 
900.922454  	85.525338 
902.359332  	85.245533 
903.796210  	84.907099 
905.233088  	84.678004 
906.669966  	84.446309 
908.106844  	84.159830 
909.543722  	83.928230 
910.980599  	83.635480 
912.417477  	83.336153 
913.854355  	83.082702 
915.291233  	82.729198 
916.728111  	82.363089 
918.164989  	82.047454 
919.601867  	81.761896 
921.038745  	81.497251 
922.475623  	81.138645 
923.912501  	80.779147 
925.349379  	80.453469 
926.786257  	80.053496 
928.223134  	79.717009 
929.660012  	79.414393 
931.096890  	79.068060 
932.533768  	78.774253 
933.970646  	78.455172 
935.407524  	78.161004 
936.844402  	77.912787 
938.281280  	77.588413 
939.718158  	77.339920 
941.155036  	77.134899 
942.591914  	76.900682 
944.028792  	76.769145 
945.465670  	76.581061 
946.902547  	76.366456 
948.339425  	76.269069 
949.776303  	76.143979 
951.213181  	76.063789 
952.650059  	75.999952 
954.086937  	75.890796 
955.523815  	75.931911 
956.960693  	75.969782 
958.397571  	75.965810 
959.834449  	76.083596 
961.271327  	76.171301 
962.708205  	76.274262 
964.145082  	76.412762 
965.581960  	76.517112 
967.018838  	76.767160 
968.455716  	77.022969 
969.892594  	77.193603 
971.329472  	77.448930 
972.766350  	77.694640 
974.203228  	77.963928 
975.640106  	78.268391 
977.076984  	78.507009 
978.513862  	78.800757 
979.950740  	79.046909 
981.387617  	79.187328 
982.824495  	79.321609 
984.261373  	79.323025 
985.698251  	79.278924 
987.135129  	79.196454 
988.572007  	78.899131 
990.008885  	78.550422 
991.445763  	78.126858 
992.882641  	77.532184 
994.319519  	76.875140 
995.756397  	76.057736 
997.193275  	75.135066 
998.630152  	74.136632 
1000.067030  	72.939187 
1001.503908  	71.724695 
1002.940786  	70.398266 
1004.377664  	68.867520 
1005.814542  	67.335663 
1007.251420  	65.609516 
1008.688298  	63.813266 
1010.125176  	62.130944 
1011.562054  	60.222994 
1012.998932  	58.288692 
1014.435810  	56.407185 
1015.872687  	54.386265 
1017.309565  	52.506137 
1018.746443  	50.589499 
1020.183321  	48.659212 
1021.620199  	46.998730 
1023.057077  	45.241307 
1024.493955  	43.577791 
1025.930833  	42.089066 
1027.367711  	40.497279 
1028.804589  	39.235905 
1030.241467  	38.051819 
1031.678345  	36.759500 
1033.115222  	35.792591 
1034.552100  	34.745762 
1035.988978  	33.769874 
1037.425856  	33.081545 
1038.862734  	32.198515 
1040.299612  	31.525460 
1041.736490  	30.998199 
1043.173368  	30.310951 
1044.610246  	29.886572 
1046.047124  	29.387888 
1047.484002  	28.895964 
1048.920880  	28.664347 
1050.357757  	28.214569 
1051.794635  	27.944642 
1053.231513  	27.807983 
1054.668391  	27.454673 
1056.105269  	27.368647 
1057.542147  	27.209574 
1058.979025  	27.002650 
1060.415903  	27.075506 
1061.852781  	26.902986 
1063.289659  	26.844866 
1064.726537  	26.925927 
1066.163415  	26.774725 
1067.600292  	26.925664 
1069.037170  	27.033345 
1070.474048  	27.017247 
1071.910926  	27.288171 
1073.347804  	27.343414 
1074.784682  	27.489515 
1076.221560  	27.814486 
1077.658438  	27.909365 
1079.095316  	28.283872 
1080.532194  	28.628770 
1081.969072  	28.831941 
1083.405950  	29.361441 
1084.842827  	29.706091 
1086.279705  	30.113241 
1087.716583  	30.768742 
1089.153461  	31.222103 
1090.590339  	31.921909 
1092.027217  	32.663308 
1093.464095  	33.286906 
1094.900973  	34.262810 
1096.337851  	35.167018 
1097.774729  	36.160868 
1099.211607  	37.426188 
1100.648485  	38.511996 
1102.085362  	39.839266 
1103.522240  	41.317372 
1104.959118  	42.699139 
1106.395996  	44.363224 
1107.832874  	45.948612 
1109.269752  	47.495112 
1110.706630  	49.236464 
1112.143508  	50.757029 
1113.580386  	52.230476 
1115.017264  	53.650518 
1116.454142  	54.810342 
1117.891020  	55.965372 
1119.327897  	56.929868 
1120.764775  	57.727611 
1122.201653  	58.527119 
1123.638531  	59.089638 
1125.075409  	59.667434 
1126.512287  	60.278829 
1127.949165  	60.670426 
1129.386043  	61.100874 
1130.822921  	61.490687 
1132.259799  	61.788237 
1133.696677  	62.165579 
1135.133555  	62.457543 
1136.570432  	62.758362 
1138.007310  	63.068110 
1139.444188  	63.262925 
1140.881066  	63.550881 
1142.317944  	63.811601 
1143.754822  	64.022881 
1145.191700  	64.327409 
1146.628578  	64.526230 
1148.065456  	64.734944 
1149.502334  	65.001909 
1150.939212  	65.182686 
1152.376090  	65.437932 
1153.812967  	65.663520 
1155.249845  	65.850462 
1156.686723  	66.137858 
1158.123601  	66.329417 
1159.560479  	66.541034 
1160.997357  	66.817755 
1162.434235  	67.003787 
1163.871113  	67.284848 
1165.307991  	67.544296 
1166.744869  	67.730195 
1168.181747  	68.050637 
1169.618625  	68.307208 
1171.055502  	68.533664 
1172.492380  	68.834309 
1173.929258  	69.066059 
1175.366136  	69.369210 
1176.803014  	69.665867 
1178.239892  	69.866835 
1179.676770  	70.164324 
1181.113648  	70.440088 
1182.550526  	70.719936 
1183.987404  	71.069844 
1185.424282  	71.316709 
1186.861160  	71.594536 
1188.298038  	71.904199 
1189.734915  	72.158620 
1191.171793  	72.489992 
1192.608671  	72.778977 
1194.045549  	73.039316 
1195.482427  	73.356901 
1196.919305  	73.609362 
1198.356183  	73.915954 
1199.793061  	74.241651 
1201.229939  	74.494221 
1202.666817  	74.834766 
1204.103695  	75.147839 
1205.540573  	75.434137 
1206.977450  	75.806020 
1208.414328  	76.094762 
1209.851206  	76.389245 
1211.288084  	76.753982 
1212.724962  	77.078871 
1214.161840  	77.440918 
1215.598718  	77.768926 
1217.035596  	78.081543 
1218.472474  	78.481093 
1219.909352  	78.822195 
1221.346230  	79.173776 
1222.783108  	79.585519 
1224.219985  	79.958156 
1225.656863  	80.388581 
1227.093741  	80.804272 
1228.530619  	81.169512 
1229.967497  	81.614253 
1231.404375  	82.057274 
1232.841253  	82.519564 
1234.278131  	83.014975 
1235.715009  	83.451554 
1237.151887  	83.939779 
1238.588765  	84.449110 
1240.025643  	84.920825 
1241.462520  	85.458553 
1242.899398  	85.992759 
1244.336276  	86.516502 
1245.773154  	87.078624 
1247.210032  	87.611019 
1248.646910  	88.166068 
1250.083788  	88.734440 
1251.520666  	89.251168 
1252.957544  	89.773148 
1254.394422  	90.276276 
1255.831300  	90.748594 
1257.268178  	91.218569 
1258.705055  	91.629649 
1260.141933  	91.997562 
1261.578811  	92.354286 
1263.015689  	92.678497 
1264.452567  	92.976883 
1265.889445  	93.220171 
1267.326323  	93.424678 
1268.763201  	93.649382 
1270.200079  	93.848518 
1271.636957  	94.004244 
1273.073835  	94.165318 
1274.510713  	94.332757 
1275.947590  	94.496925 
1277.384468  	94.638864 
1278.821346  	94.739373 
1280.258224  	94.819601 
1281.695102  	94.906836 
1283.131980  	95.008647 
1284.568858  	95.097282 
1286.005736  	95.161719 
1287.442614  	95.234834 
1288.879492  	95.309020 
1290.316370  	95.371180 
1291.753248  	95.444853 
1293.190125  	95.523511 
1294.627003  	95.587034 
1296.063881  	95.632976 
1297.500759  	95.677242 
1298.937637  	95.736366 
1300.374515  	95.790446 
1301.811393  	95.829533 
1303.248271  	95.862695 
1304.685149  	95.898532 
1306.122027  	95.937797 
1307.558905  	95.975085 
1308.995783  	96.007851 
1310.432660  	96.046047 
1311.869538  	96.074136 
1313.306416  	96.088189 
1314.743294  	96.120189 
1316.180172  	96.155989 
1317.617050  	96.182595 
1319.053928  	96.208485 
1320.490806  	96.240437 
1321.927684  	96.275789 
1323.364562  	96.307799 
1324.801440  	96.319771 
1326.238318  	96.341667 
1327.675195  	96.371120 
1329.112073  	96.393919 
1330.548951  	96.419976 
1331.985829  	96.440125 
1333.422707  	96.449341 
1334.859585  	96.451496 
1336.296463  	96.456583 
1337.733341  	96.452335 
1339.170219  	96.435053 
1340.607097  	96.465657 
1342.043975  	96.531802 
1343.480853  	96.563670 
1344.917730  	96.589542 
1346.354608  	96.632509 
1347.791486  	96.652548 
1349.228364  	96.651825 
1350.665242  	96.657561 
1352.102120  	96.653924 
1353.538998  	96.642498 
1354.975876  	96.652545 
1356.412754  	96.685320 
1357.849632  	96.713448 
1359.286510  	96.723237 
1360.723388  	96.708007 
1362.160265  	96.689179 
1363.597143  	96.686978 
1365.034021  	96.706787 
1366.470899  	96.720436 
1367.907777  	96.734358 
1369.344655  	96.749356 
1370.781533  	96.773456 
1372.218411  	96.787013 
1373.655289  	96.762121 
1375.092167  	96.751204 
1376.529045  	96.771389 
1377.965923  	96.774510 
1379.402800  	96.768239 
1380.839678  	96.795814 
1382.276556  	96.823313 
1383.713434  	96.836919 
1385.150312  	96.853801 
1386.587190  	96.840256 
1388.024068  	96.840437 
1389.460946  	96.861364 
1390.897824  	96.868241 
1392.334702  	96.867272 
1393.771580  	96.871118 
1395.208458  	96.842142 
1396.645335  	96.836855 
1398.082213  	96.848311 
1399.519091  	96.866398 
1400.955969  	96.895338 
1402.392847  	96.918435 
1403.829725  	96.919093 
1405.266603  	96.911690 
1406.703481  	96.941311 
1408.140359  	96.958360 
1409.577237  	96.941588 
1411.014115  	96.943928 
1412.450993  	96.946120 
1413.887871  	96.949186 
1415.324748  	96.945033 
1416.761626  	96.911761 
1418.198504  	96.878927 
1419.635382  	96.895102 
1421.072260  	96.932195 
1422.509138  	96.943875 
1423.946016  	96.929764 
1425.382894  	96.934202 
1426.819772  	96.963771 
1428.256650  	96.974195 
1429.693528  	96.961539 
1431.130406  	96.951144 
1432.567283  	96.923137 
1434.004161  	96.919248 
1435.441039  	96.946249 
1436.877917  	96.947649 
1438.314795  	96.955851 
1439.751673  	96.959349 
1441.188551  	96.967928 
1442.625429  	96.988598 
1444.062307  	96.982625 
1445.499185  	96.962985 
1446.936063  	96.957411 
1448.372941  	96.952147 
1449.809818  	96.960421 
1451.246696  	96.985624 
1452.683574  	96.978595 
1454.120452  	96.963995 
1455.557330  	96.973864 
1456.994208  	96.955428 
1458.431086  	96.954925 
1459.867964  	96.962112 
1461.304842  	96.978007 
1462.741720  	96.990290 
1464.178598  	96.982870 
1465.615476  	96.968223 
1467.052353  	96.978208 
1468.489231  	97.001782 
1469.926109  	97.028968 
1471.362987  	97.023129 
1472.799865  	96.981361 
1474.236743  	96.962105 
1475.673621  	96.942767 
1477.110499  	96.945650 
1478.547377  	96.988340 
1479.984255  	97.013662 
1481.421133  	97.004873 
1482.858011  	97.001080 
1484.294888  	97.010092 
1485.731766  	96.997613 
1487.168644  	96.996992 
1488.605522  	96.993478 
1490.042400  	96.967554 
1491.479278  	96.992692 
1492.916156  	97.036322 
1494.353034  	97.063268 
1495.789912  	97.079016 
1497.226790  	97.062747 
1498.663668  	97.040514 
1500.100546  	97.034894 
1501.537423  	97.037409 
1502.974301  	97.042487 
1504.411179  	97.087266 
1505.848057  	97.118092 
1507.284935  	97.000432 
1508.721813  	96.927443 
1510.158691  	96.945511 
1511.595569  	96.992413 
1513.032447  	97.016565 
1514.469325  	96.997225 
1515.906203  	96.993496 
1517.343081  	97.008783 
1518.779958  	97.030215 
1520.216836  	97.042666 
1521.653714  	97.015591 
1523.090592  	97.024343 
1524.527470  	97.043293 
1525.964348  	97.043804 
1527.401226  	97.039046 
1528.838104  	97.061028 
1530.274982  	97.071574 
1531.711860  	97.059672 
1533.148738  	97.058002 
1534.585616  	97.035497 
1536.022493  	97.030841 
1537.459371  	97.091224 
1538.896249  	97.181811 
1540.333127  	97.189096 
1541.770005  	97.132898 
1543.206883  	97.046450 
1544.643761  	97.007536 
1546.080639  	97.028780 
1547.517517  	97.039382 
1548.954395  	97.027080 
1550.391273  	97.000394 
1551.828151  	97.024487 
1553.265028  	97.060333 
1554.701906  	97.042347 
1556.138784  	97.026489 
1557.575662  	97.080588 
1559.012540  	97.064617 
1560.449418  	97.025659 
1561.886296  	96.976437 
1563.323174  	96.957671 
1564.760052  	96.955289 
1566.196930  	96.928045 
1567.633808  	96.922329 
1569.070686  	96.924664 
1570.507563  	96.896816 
1571.944441  	96.876619 
1573.381319  	96.855962 
1574.818197  	96.892640 
1576.255075  	96.933252 
1577.691953  	96.851015 
1579.128831  	96.790714 
1580.565709  	96.797570 
1582.002587  	96.779324 
1583.439465  	96.750328 
1584.876343  	96.741441 
1586.313221  	96.711353 
1587.750098  	96.692379 
1589.186976  	96.688132 
1590.623854  	96.654631 
1592.060732  	96.619145 
1593.497610  	96.586128 
1594.934488  	96.555603 
1596.371366  	96.536017 
1597.808244  	96.519702 
1599.245122  	96.518806 
1600.682000  	96.476821 
1602.118878  	96.377928 
1603.555756  	96.298930 
1604.992633  	96.223959 
1606.429511  	96.174591 
1607.866389  	96.126626 
1609.303267  	96.049077 
1610.740145  	96.021476 
1612.177023  	95.983432 
1613.613901  	95.908968 
1615.050779  	95.909094 
1616.487657  	95.915036 
1617.924535  	95.858380 
1619.361413  	95.795091 
1620.798291  	95.755133 
1622.235168  	95.743785 
1623.672046  	95.716609 
1625.108924  	95.681759 
1626.545802  	95.678167 
1627.982680  	95.658222 
1629.419558  	95.628556 
1630.856436  	95.651873 
1632.293314  	95.701421 
1633.730192  	95.772635 
1635.167070  	95.859783 
1636.603948  	95.835170 
1638.040826  	95.820331 
1639.477703  	95.857402 
1640.914581  	95.905993 
1642.351459  	95.946270 
1643.788337  	96.000924 
1645.225215  	96.090211 
1646.662093  	96.170448 
1648.098971  	96.175688 
1649.535849  	96.212045 
1650.972727  	96.322156 
1652.409605  	96.451156 
1653.846483  	96.432236 
1655.283361  	96.416166 
1656.720239  	96.441035 
1658.157116  	96.541996 
1659.593994  	96.602046 
1661.030872  	96.633082 
1662.467750  	96.685094 
1663.904628  	96.719471 
1665.341506  	96.789896 
1666.778384  	96.864490 
1668.215262  	96.912241 
1669.652140  	96.968185 
1671.089018  	97.011590 
1672.525896  	97.051356 
1673.962774  	97.131073 
1675.399651  	97.207709 
1676.836529  	97.215194 
1678.273407  	97.239754 
1679.710285  	97.267639 
1681.147163  	97.313924 
1682.584041  	97.400761 
1684.020919  	97.457363 
1685.457797  	97.483601 
1686.894675  	97.494296 
1688.331553  	97.492540 
1689.768431  	97.534547 
1691.205309  	97.603916 
1692.642186  	97.651479 
1694.079064  	97.710652 
1695.515942  	97.794616 
1696.952820  	97.761738 
1698.389698  	97.729924 
1699.826576  	97.797345 
1701.263454  	97.796052 
1702.700332  	97.785677 
1704.137210  	97.823072 
1705.574088  	97.862407 
1707.010966  	97.878463 
1708.447844  	97.905892 
1709.884721  	97.899086 
1711.321599  	97.907628 
1712.758477  	97.936105 
1714.195355  	97.942949 
1715.632233  	97.983310 
1717.069111  	98.043659 
1718.505989  	98.043044 
1719.942867  	98.048244 
1721.379745  	98.082959 
1722.816623  	98.122836 
1724.253501  	98.155817 
1725.690379  	98.193634 
1727.127256  	98.221084 
1728.564134  	98.211691 
1730.001012  	98.202395 
1731.437890  	98.225157 
1732.874768  	98.262385 
1734.311646  	98.267663 
1735.748524  	98.270070 
1737.185402  	98.269628 
1738.622280  	98.313834 
1740.059158  	98.338985 
1741.496036  	98.316430 
1742.932914  	98.305123 
1744.369791  	98.312969 
1745.806669  	98.351059 
1747.243547  	98.359446 
1748.680425  	98.328275 
1750.117303  	98.325396 
1751.554181  	98.339546 
1752.991059  	98.357768 
1754.427937  	98.414209 
1755.864815  	98.447943 
1757.301693  	98.411417 
1758.738571  	98.419301 
1760.175449  	98.457263 
1761.612326  	98.447469 
1763.049204  	98.433435 
1764.486082  	98.466248 
1765.922960  	98.491300 
1767.359838  	98.468929 
1768.796716  	98.447158 
1770.233594  	98.479744 
1771.670472  	98.529432 
1773.107350  	98.547498 
1774.544228  	98.533403 
1775.981106  	98.507929 
1777.417984  	98.511372 
1778.854861  	98.524851 
1780.291739  	98.526196 
1781.728617  	98.528887 
1783.165495  	98.529579 
1784.602373  	98.517323 
1786.039251  	98.509018 
1787.476129  	98.534216 
1788.913007  	98.555504 
1790.349885  	98.541872 
1791.786763  	98.536555 
1793.223641  	98.529063 
1794.660519  	98.510502 
1796.097396  	98.498092 
1797.534274  	98.511771 
1798.971152  	98.529478 
1800.408030  	98.491959 
1801.844908  	98.461376 
1803.281786  	98.527449 
1804.718664  	98.560166 
1806.155542  	98.543008 
1807.592420  	98.569408 
1809.029298  	98.597593 
1810.466176  	98.605940 
1811.903054  	98.628074 
1813.339931  	98.650419 
1814.776809  	98.677903 
1816.213687  	98.692543 
1817.650565  	98.642376 
1819.087443  	98.621793 
1820.524321  	98.630153 
1821.961199  	98.638214 
1823.398077  	98.655350 
1824.834955  	98.636772 
1826.271833  	98.614554 
1827.708711  	98.619493 
1829.145589  	98.615134 
1830.582466  	98.610444 
1832.019344  	98.633656 
1833.456222  	98.634816 
1834.893100  	98.600786 
1836.329978  	98.549155 
1837.766856  	98.523668 
1839.203734  	98.556894 
1840.640612  	98.562295 
1842.077490  	98.557776 
1843.514368  	98.583600 
1844.951246  	98.562647 
1846.388124  	98.515547 
1847.825001  	98.496288 
1849.261879  	98.478344 
1850.698757  	98.493726 
1852.135635  	98.573000 
1853.572513  	98.591559 
1855.009391  	98.600260 
1856.446269  	98.568763 
1857.883147  	98.513999 
1859.320025  	98.539299 
1860.756903  	98.569152 
1862.193781  	98.536382 
1863.630659  	98.513819 
1865.067536  	98.518687 
1866.504414  	98.497619 
1867.941292  	98.466316 
1869.378170  	98.448326 
1870.815048  	98.441078 
1872.251926  	98.482541 
1873.688804  	98.573862 
1875.125682  	98.563911 
1876.562560  	98.499303 
1877.999438  	98.493190 
1879.436316  	98.533987 
1880.873194  	98.585913 
1882.310072  	98.587646 
1883.746949  	98.534223 
1885.183827  	98.567827 
1886.620705  	98.632362 
1888.057583  	98.576980 
1889.494461  	98.530853 
1890.931339  	98.620207 
1892.368217  	98.726722 
1893.805095  	98.753274 
1895.241973  	98.746758 
1896.678851  	98.695297 
1898.115729  	98.670930 
1899.552607  	98.748963 
1900.989484  	98.729768 
1902.426362  	98.667825 
1903.863240  	98.733129 
1905.300118  	98.821178 
1906.736996  	98.902714 
1908.173874  	98.857470 
1909.610752  	98.767668 
1911.047630  	98.736773 
1912.484508  	98.853902 
1913.921386  	98.910255 
1915.358264  	98.953130 
1916.795142  	98.929886 
1918.232019  	98.816221 
1919.668897  	98.806166 
1921.105775  	98.897251 
1922.542653  	98.915097 
1923.979531  	98.887301 
1925.416409  	98.862196 
1926.853287  	98.878357 
1928.290165  	98.884740 
1929.727043  	98.889980 
1931.163921  	98.922018 
1932.600799  	98.940735 
1934.037677  	98.936054 
1935.474554  	98.947812 
1936.911432  	98.964262 
1938.348310  	98.943517 
1939.785188  	98.862414 
1941.222066  	98.830070 
1942.658944  	98.889445 
1944.095822  	98.856732 
1945.532700  	98.747038 
1946.969578  	98.817078 
1948.406456  	98.932756 
1949.843334  	99.025281 
1951.280212  	99.154871 
1952.717089  	99.140557 
1954.153967  	99.004575 
1955.590845  	98.843484 
1957.027723  	98.841526 
1958.464601  	99.056314 
1959.901479  	99.109593 
1961.338357  	99.111029 
1962.775235  	99.249646 
1964.212113  	99.182007 
1965.648991  	99.056374 
1967.085869  	98.915322 
1968.522747  	98.881376 
1969.959624  	99.104599 
1971.396502  	99.103354 
1972.833380  	98.926807 
1974.270258  	99.125873 
1975.707136  	99.165228 
1977.144014  	98.845311 
1978.580892  	98.636726 
1980.017770  	98.586064 
1981.454648  	98.763021 
1982.891526  	99.008561 
1984.328404  	98.929074 
1985.765282  	98.751382 
1987.202159  	98.662947 
1988.639037  	98.658884 
1990.075915  	98.771645 
1991.512793  	98.687725 
1992.949671  	98.502641 
1994.386549  	98.575077 
1995.823427  	98.764052 
1997.260305  	98.873792 
1998.697183  	98.854445 
2000.134061  	98.880165 
2001.570939  	99.096080 
2003.007817  	99.183632 
2004.444694  	99.081507 
2005.881572  	99.034927 
2007.318450  	98.962065 
2008.755328  	98.999446 
2010.192206  	99.188160 
2011.629084  	99.157416 
2013.065962  	99.048301 
2014.502840  	99.051705 
2015.939718  	99.030454 
2017.376596  	99.071801 
2018.813474  	99.165963 
2020.250352  	99.117171 
2021.687229  	99.102712 
2023.124107  	99.207570 
2024.560985  	99.112108 
2025.997863  	98.838169 
2027.434741  	98.800698 
2028.871619  	99.067109 
2030.308497  	99.320243 
2031.745375  	99.175633 
2033.182253  	98.837029 
2034.619131  	98.979145 
2036.056009  	99.284474 
2037.492887  	99.180453 
2038.929764  	99.162717 
2040.366642  	99.429186 
2041.803520  	99.508523 
2043.240398  	99.392489 
2044.677276  	99.303510 
2046.114154  	99.304172 
2047.551032  	99.320747 
2048.987910  	99.332301 
2050.424788  	99.359661 
2051.861666  	99.213787 
2053.298544  	99.039632 
2054.735422  	99.125475 
2056.172299  	99.170914 
2057.609177  	99.080120 
2059.046055  	99.207270 
2060.482933  	99.379246 
2061.919811  	99.276257 
2063.356689  	99.090827 
2064.793567  	99.080005 
2066.230445  	99.233310 
2067.667323  	99.346362 
2069.104201  	99.303071 
2070.541079  	99.258032 
2071.977957  	99.268860 
2073.414834  	99.139961 
2074.851712  	98.939765 
2076.288590  	98.963668 
2077.725468  	99.020128 
2079.162346  	98.933823 
2080.599224  	99.027416 
2082.036102  	99.189789 
2083.472980  	99.111790 
2084.909858  	99.034946 
2086.346736  	99.036169 
2087.783614  	99.013669 
2089.220492  	99.050203 
2090.657369  	99.062453 
2092.094247  	99.108896 
2093.531125  	99.272818 
2094.968003  	99.277071 
2096.404881  	99.167596 
2097.841759  	99.144064 
2099.278637  	99.103911 
2100.715515  	99.094284 
2102.152393  	99.054185 
2103.589271  	98.925652 
2105.026149  	98.962395 
2106.463027  	99.076635 
2107.899904  	99.059611 
2109.336782  	99.051057 
2110.773660  	99.077427 
2112.210538  	99.091930 
2113.647416  	99.134859 
2115.084294  	99.200308 
2116.521172  	99.278332 
2117.958050  	99.260291 
2119.394928  	99.128017 
2120.831806  	99.089427 
2122.268684  	99.157568 
2123.705562  	99.187156 
2125.142440  	99.193653 
2126.579317  	99.216362 
2128.016195  	99.236459 
2129.453073  	99.279835 
2130.889951  	99.389673 
2132.326829  	99.521456 
2133.763707  	99.632056 
2135.200585  	99.719745 
2136.637463  	99.649897 
2138.074341  	99.481490 
2139.511219  	99.476486 
2140.948097  	99.493020 
2142.384975  	99.466842 
2143.821852  	99.578840 
2145.258730  	99.676625 
2146.695608  	99.699244 
2148.132486  	99.714932 
2149.569364  	99.673009 
2151.006242  	99.727688 
2152.443120  	99.894890 
2153.879998  	100.035793 
2155.316876  	100.047301 
2156.753754  	99.882322 
2158.190632  	99.847063 
2159.627510  	99.627957 
2161.064387  	99.167761 
2162.501265  	99.343804 
2163.938143  	99.411826 
2165.375021  	98.944933 
2166.811899  	98.881888 
2168.248777  	99.078915 
2169.685655  	99.168774 
2171.122533  	99.394368 
2172.559411  	99.452862 
2173.996289  	99.166629 
2175.433167  	98.895011 
2176.870045  	98.955544 
2178.306922  	99.164627 
2179.743800  	99.081469 
2181.180678  	99.011259 
2182.617556  	99.136610 
2184.054434  	98.971642 
2185.491312  	98.858806 
2186.928190  	99.055037 
2188.365068  	99.051592 
2189.801946  	98.889189 
2191.238824  	98.756473 
2192.675702  	98.749621 
2194.112580  	98.940451 
2195.549457  	98.836093 
2196.986335  	98.555859 
2198.423213  	98.771045 
2199.860091  	99.028100 
2201.296969  	98.861624 
2202.733847  	98.771512 
2204.170725  	98.842828 
2205.607603  	98.790315 
2207.044481  	98.762425 
2208.481359  	98.845118 
2209.918237  	98.859450 
2211.355115  	98.812154 
2212.791992  	98.786352 
2214.228870  	98.768972 
2215.665748  	98.840880 
2217.102626  	98.931399 
2218.539504  	98.774999 
2219.976382  	98.511272 
2221.413260  	98.474609 
2222.850138  	98.610099 
2224.287016  	98.678734 
2225.723894  	98.602883 
2227.160772  	98.500795 
2228.597650  	98.536263 
2230.034527  	98.600466 
2231.471405  	98.517829 
2232.908283  	98.482709 
2234.345161  	98.615787 
2235.782039  	98.637696 
2237.218917  	98.516088 
2238.655795  	98.492858 
2240.092673  	98.506048 
2241.529551  	98.479548 
2242.966429  	98.579813 
2244.403307  	98.780487 
2245.840185  	98.879118 
2247.277062  	98.860356 
2248.713940  	98.853189 
2250.150818  	98.874031 
2251.587696  	98.828180 
2253.024574  	98.771795 
2254.461452  	98.787302 
2255.898330  	98.802625 
2257.335208  	98.759245 
2258.772086  	98.655468 
2260.208964  	98.563749 
2261.645842  	98.577333 
2263.082720  	98.606678 
2264.519597  	98.581716 
2265.956475  	98.594384 
2267.393353  	98.604947 
2268.830231  	98.583288 
2270.267109  	98.598744 
2271.703987  	98.557320 
2273.140865  	98.480982 
2274.577743  	98.479572 
2276.014621  	98.515478 
2277.451499  	98.511772 
2278.888377  	98.495047 
2280.325255  	98.490548 
2281.762132  	98.478312 
2283.199010  	98.439334 
2284.635888  	98.429055 
2286.072766  	98.502586 
2287.509644  	98.562983 
2288.946522  	98.556555 
2290.383400  	98.535302 
2291.820278  	98.534942 
2293.257156  	98.544613 
2294.694034  	98.552052 
2296.130912  	98.563674 
2297.567790  	98.604300 
2299.004667  	98.585033 
2300.441545  	98.642100 
2301.878423  	98.660155 
2303.315301  	98.674585 
2304.752179  	98.634522 
2306.189057  	98.629426 
2307.625935  	98.684021 
2309.062813  	98.690447 
2310.499691  	98.685604 
2311.936569  	98.716734 
2313.373447  	98.701561 
2314.810325  	98.684468 
2316.247202  	98.716990 
2317.684080  	98.720158 
2319.120958  	98.737349 
2320.557836  	98.793431 
2321.994714  	98.745438 
2323.431592  	98.672538 
2324.868470  	98.791401 
2326.305348  	98.970203 
2327.742226  	99.004445 
2329.179104  	99.005427 
2330.615982  	99.062395 
2332.052860  	99.020093 
2333.489737  	98.952733 
2334.926615  	99.031941 
2336.363493  	99.121084 
2337.800371  	99.133747 
2339.237249  	99.118453 
2340.674127  	99.064516 
2342.111005  	99.048115 
2343.547883  	99.042153 
2344.984761  	98.956107 
2346.421639  	98.935054 
2347.858517  	98.975061 
2349.295395  	98.964533 
2350.732273  	98.978862 
2352.169150  	99.038865 
2353.606028  	99.026250 
2355.042906  	98.965932 
2356.479784  	98.944386 
2357.916662  	98.965102 
2359.353540  	98.949087 
2360.790418  	98.899436 
2362.227296  	98.859097 
2363.664174  	98.807736 
2365.101052  	98.751536 
2366.537930  	98.776287 
2367.974808  	98.786481 
2369.411685  	98.739440 
2370.848563  	98.693487 
2372.285441  	98.661880 
2373.722319  	98.623871 
2375.159197  	98.617096 
2376.596075  	98.677840 
2378.032953  	98.711274 
2379.469831  	98.693645 
2380.906709  	98.699363 
2382.343587  	98.738489 
2383.780465  	98.760215 
2385.217343  	98.770467 
2386.654220  	98.822678 
2388.091098  	98.867520 
2389.527976  	98.877683 
2390.964854  	98.839060 
2392.401732  	98.788321 
2393.838610  	98.798849 
2395.275488  	98.847983 
2396.712366  	98.886843 
2398.149244  	98.912261 
2399.586122  	98.938400 
2401.023000  	98.975379 
2402.459878  	98.996518 
2403.896755  	98.993733 
2405.333633  	98.970072 
2406.770511  	98.920632 
2408.207389  	98.898923 
2409.644267  	98.896129 
2411.081145  	98.880983 
2412.518023  	98.920027 
2413.954901  	98.975004 
2415.391779  	98.968066 
2416.828657  	98.951707 
2418.265535  	98.957373 
2419.702413  	98.976353 
2421.139290  	98.975597 
2422.576168  	98.926557 
2424.013046  	98.890342 
2425.449924  	98.886316 
2426.886802  	98.925777 
2428.323680  	98.998065 
2429.760558  	98.959216 
2431.197436  	98.862422 
2432.634314  	98.866293 
2434.071192  	98.867876 
2435.508070  	98.836735 
2436.944948  	98.859046 
2438.381825  	98.875653 
2439.818703  	98.864272 
2441.255581  	98.854101 
2442.692459  	98.845806 
2444.129337  	98.843497 
2445.566215  	98.820044 
2447.003093  	98.807834 
2448.439971  	98.833637 
2449.876849  	98.849765 
2451.313727  	98.854035 
2452.750605  	98.822583 
2454.187483  	98.785642 
2455.624360  	98.837197 
2457.061238  	98.881547 
2458.498116  	98.861756 
2459.934994  	98.881242 
2461.371872  	98.908871 
2462.808750  	98.905374 
2464.245628  	98.908075 
2465.682506  	98.882642 
2467.119384  	98.844516 
2468.556262  	98.853976 
2469.993140  	98.879466 
2471.430018  	98.860532 
2472.866895  	98.820757 
2474.303773  	98.840536 
2475.740651  	98.896478 
2477.177529  	98.913237 
2478.614407  	98.911741 
2480.051285  	98.919490 
2481.488163  	98.934046 
2482.925041  	98.932448 
2484.361919  	98.885168 
2485.798797  	98.861553 
2487.235675  	98.899261 
2488.672553  	98.936161 
2490.109430  	98.955647 
2491.546308  	98.940685 
2492.983186  	98.898456 
2494.420064  	98.888600 
2495.856942  	98.883449 
2497.293820  	98.863941 
2498.730698  	98.873039 
2500.167576  	98.907827 
2501.604454  	98.935737 
2503.041332  	98.921540 
2504.478210  	98.904412 
2505.915088  	98.925231 
2507.351965  	98.888008 
2508.788843  	98.821128 
2510.225721  	98.847965 
2511.662599  	98.856955 
2513.099477  	98.773295 
2514.536355  	98.747209 
2515.973233  	98.806507 
2517.410111  	98.827830 
2518.846989  	98.809084 
2520.283867  	98.827497 
2521.720745  	98.855116 
2523.157623  	98.853845 
2524.594500  	98.866853 
2526.031378  	98.879658 
2527.468256  	98.861153 
2528.905134  	98.843465 
2530.342012  	98.829487 
2531.778890  	98.839878 
2533.215768  	98.878561 
2534.652646  	98.872178 
2536.089524  	98.838286 
2537.526402  	98.841653 
2538.963280  	98.864638 
2540.400158  	98.873514 
2541.837035  	98.839843 
2543.273913  	98.799976 
2544.710791  	98.820001 
2546.147669  	98.843076 
2547.584547  	98.814436 
2549.021425  	98.790790 
2550.458303  	98.798878 
2551.895181  	98.782585 
2553.332059  	98.735339 
2554.768937  	98.746885 
2556.205815  	98.792930 
2557.642693  	98.774974 
2559.079570  	98.768534 
2560.516448  	98.796961 
2561.953326  	98.763290 
2563.390204  	98.735873 
2564.827082  	98.755690 
2566.263960  	98.750482 
2567.700838  	98.758304 
2569.137716  	98.784830 
2570.574594  	98.777490 
2572.011472  	98.755174 
2573.448350  	98.716982 
2574.885228  	98.688559 
2576.322105  	98.714185 
2577.758983  	98.752451 
2579.195861  	98.767093 
2580.632739  	98.733486 
2582.069617  	98.665846 
2583.506495  	98.665620 
2584.943373  	98.718401 
2586.380251  	98.728963 
2587.817129  	98.725737 
2589.254007  	98.734508 
2590.690885  	98.719604 
2592.127763  	98.686199 
2593.564641  	98.671776 
2595.001518  	98.715554 
2596.438396  	98.776256 
2597.875274  	98.761371 
2599.312152  	98.699552 
2600.749030  	98.648924 
2602.185908  	98.611191 
2603.622786  	98.630960 
2605.059664  	98.683442 
2606.496542  	98.680385 
2607.933420  	98.675705 
2609.370298  	98.705541 
2610.807176  	98.693757 
2612.244053  	98.670354 
2613.680931  	98.684888 
2615.117809  	98.670480 
2616.554687  	98.616094 
2617.991565  	98.597879 
2619.428443  	98.634621 
2620.865321  	98.669335 
2622.302199  	98.671556 
2623.739077  	98.678175 
2625.175955  	98.692007 
2626.612833  	98.672239 
2628.049711  	98.637767 
2629.486588  	98.631421 
2630.923466  	98.646493 
2632.360344  	98.642279 
2633.797222  	98.596555 
2635.234100  	98.551213 
2636.670978  	98.556089 
2638.107856  	98.592754 
2639.544734  	98.607324 
2640.981612  	98.590082 
2642.418490  	98.587635 
2643.855368  	98.603013 
2645.292246  	98.601413 
2646.729123  	98.604071 
2648.166001  	98.613227 
2649.602879  	98.612727 
2651.039757  	98.631310 
2652.476635  	98.634747 
2653.913513  	98.596474 
2655.350391  	98.589340 
2656.787269  	98.613382 
2658.224147  	98.623272 
2659.661025  	98.639869 
2661.097903  	98.660239 
2662.534781  	98.670448 
2663.971658  	98.682630 
2665.408536  	98.689994 
2666.845414  	98.690795 
2668.282292  	98.693828 
2669.719170  	98.703501 
2671.156048  	98.717437 
2672.592926  	98.724563 
2674.029804  	98.722551 
2675.466682  	98.701545 
2676.903560  	98.687709 
2678.340438  	98.718620 
2679.777316  	98.716728 
2681.214193  	98.661039 
2682.651071  	98.658545 
2684.087949  	98.680914 
2685.524827  	98.668191 
2686.961705  	98.674730 
2688.398583  	98.686546 
2689.835461  	98.681184 
2691.272339  	98.699974 
2692.709217  	98.717942 
2694.146095  	98.706792 
2695.582973  	98.693703 
2697.019851  	98.690148 
2698.456728  	98.682921 
2699.893606  	98.663587 
2701.330484  	98.657841 
2702.767362  	98.669936 
2704.204240  	98.665104 
2705.641118  	98.659063 
2707.077996  	98.670321 
2708.514874  	98.680710 
2709.951752  	98.692943 
2711.388630  	98.692203 
2712.825508  	98.665552 
2714.262386  	98.651720 
2715.699263  	98.665596 
2717.136141  	98.675715 
2718.573019  	98.662566 
2720.009897  	98.646295 
2721.446775  	98.645064 
2722.883653  	98.640065 
2724.320531  	98.630847 
2725.757409  	98.629892 
2727.194287  	98.625085 
2728.631165  	98.618101 
2730.068043  	98.620583 
2731.504921  	98.643505 
2732.941798  	98.666735 
2734.378676  	98.636152 
2735.815554  	98.595094 
2737.252432  	98.611624 
2738.689310  	98.627658 
2740.126188  	98.614559 
2741.563066  	98.611035 
2742.999944  	98.599379 
2744.436822  	98.576278 
2745.873700  	98.581690 
2747.310578  	98.620657 
2748.747456  	98.650407 
2750.184333  	98.635536 
2751.621211  	98.612323 
2753.058089  	98.614963 
2754.494967  	98.611569 
2755.931845  	98.596271 
2757.368723  	98.597981 
2758.805601  	98.610811 
2760.242479  	98.603103 
2761.679357  	98.576498 
2763.116235  	98.563651 
2764.553113  	98.556465 
2765.989991  	98.552484 
2767.426868  	98.572650 
2768.863746  	98.575166 
2770.300624  	98.550383 
2771.737502  	98.533791 
2773.174380  	98.512137 
2774.611258  	98.522092 
2776.048136  	98.574520 
2777.485014  	98.582162 
2778.921892  	98.553341 
2780.358770  	98.534591 
2781.795648  	98.517289 
2783.232526  	98.516654 
2784.669403  	98.514197 
2786.106281  	98.495160 
2787.543159  	98.479182 
2788.980037  	98.459176 
2790.416915  	98.474048 
2791.853793  	98.512040 
2793.290671  	98.493848 
2794.727549  	98.463099 
2796.164427  	98.452786 
2797.601305  	98.451340 
2799.038183  	98.500146 
2800.475061  	98.522018 
2801.911938  	98.461516 
2803.348816  	98.427969 
2804.785694  	98.433064 
2806.222572  	98.437532 
2807.659450  	98.446178 
2809.096328  	98.418149 
2810.533206  	98.397531 
2811.970084  	98.432818 
2813.406962  	98.446040 
2814.843840  	98.448340 
2816.280718  	98.479276 
2817.717596  	98.467183 
2819.154474  	98.431442 
2820.591351  	98.440701 
2822.028229  	98.442229 
2823.465107  	98.402928 
2824.901985  	98.367306 
2826.338863  	98.349525 
2827.775741  	98.351295 
2829.212619  	98.373556 
2830.649497  	98.384400 
2832.086375  	98.368717 
2833.523253  	98.338981 
2834.960131  	98.312375 
2836.397009  	98.318719 
2837.833886  	98.341327 
2839.270764  	98.339651 
2840.707642  	98.354255 
2842.144520  	98.404746 
2843.581398  	98.420340 
2845.018276  	98.399292 
2846.455154  	98.398580 
2847.892032  	98.408332 
2849.328910  	98.410900 
2850.765788  	98.396804 
2852.202666  	98.343474 
2853.639544  	98.308230 
2855.076421  	98.339120 
2856.513299  	98.350435 
2857.950177  	98.304024 
2859.387055  	98.265745 
2860.823933  	98.253671 
2862.260811  	98.249774 
2863.697689  	98.212994 
2865.134567  	98.148769 
2866.571445  	98.178016 
2868.008323  	98.260766 
2869.445201  	98.239012 
2870.882079  	98.187526 
2872.318956  	98.175452 
2873.755834  	98.136919 
2875.192712  	98.134746 
2876.629590  	98.183322 
2878.066468  	98.183061 
2879.503346  	98.154773 
2880.940224  	98.126750 
2882.377102  	98.092105 
2883.813980  	98.101341 
2885.250858  	98.142947 
2886.687736  	98.150427 
2888.124614  	98.119048 
2889.561491  	98.093358 
2890.998369  	98.097645 
2892.435247  	98.115518 
2893.872125  	98.147034 
2895.309003  	98.172128 
2896.745881  	98.149992 
2898.182759  	98.128609 
2899.619637  	98.143982 
2901.056515  	98.149464 
2902.493393  	98.127843 
2903.930271  	98.095592 
2905.367149  	98.080940 
2906.804026  	98.073342 
2908.240904  	98.045113 
2909.677782  	98.063336 
2911.114660  	98.114615 
2912.551538  	98.096782 
2913.988416  	98.073214 
2915.425294  	98.103551 
2916.862172  	98.121725 
2918.299050  	98.112486 
2919.735928  	98.099887 
2921.172806  	98.106242 
2922.609684  	98.098323 
2924.046561  	98.036087 
2925.483439  	98.023399 
2926.920317  	98.065152 
2928.357195  	98.036569 
2929.794073  	97.984820 
2931.230951  	97.948847 
2932.667829  	97.886145 
2934.104707  	97.868762 
2935.541585  	97.913101 
2936.978463  	97.923792 
2938.415341  	97.883357 
2939.852219  	97.853516 
2941.289096  	97.856671 
2942.725974  	97.839606 
2944.162852  	97.815268 
2945.599730  	97.838034 
2947.036608  	97.840891 
2948.473486  	97.805228 
2949.910364  	97.803121 
2951.347242  	97.811299 
2952.784120  	97.809678 
2954.220998  	97.812964 
2955.657876  	97.791400 
2957.094754  	97.752086 
2958.531631  	97.719109 
2959.968509  	97.702750 
2961.405387  	97.698591 
2962.842265  	97.659820 
2964.279143  	97.612493 
2965.716021  	97.617200 
2967.152899  	97.627543 
2968.589777  	97.610570 
2970.026655  	97.595978 
2971.463533  	97.582559 
2972.900411  	97.565523 
2974.337289  	97.552283 
2975.774166  	97.539960 
2977.211044  	97.521566 
2978.647922  	97.495397 
2980.084800  	97.482286 
2981.521678  	97.488945 
2982.958556  	97.486684 
2984.395434  	97.480159 
2985.832312  	97.496072 
2987.269190  	97.507012 
2988.706068  	97.489930 
2990.142946  	97.472258 
2991.579824  	97.452008 
2993.016701  	97.435129 
2994.453579  	97.464629 
2995.890457  	97.495974 
2997.327335  	97.477870 
2998.764213  	97.446355 
3000.201091  	97.405916 
3001.637969  	97.386318 
3003.074847  	97.429750 
3004.511725  	97.448097 
3005.948603  	97.417799 
3007.385481  	97.416645 
3008.822359  	97.405015 
3010.259236  	97.356609 
3011.696114  	97.344519 
3013.132992  	97.375542 
3014.569870  	97.382834 
3016.006748  	97.340922 
3017.443626  	97.321334 
3018.880504  	97.347968 
3020.317382  	97.321354 
3021.754260  	97.257999 
3023.191138  	97.258141 
3024.628016  	97.286783 
3026.064894  	97.308448 
3027.501771  	97.332301 
3028.938649  	97.305226 
3030.375527  	97.242529 
3031.812405  	97.231821 
3033.249283  	97.245878 
3034.686161  	97.224086 
3036.123039  	97.217589 
3037.559917  	97.232300 
3038.996795  	97.195543 
3040.433673  	97.155312 
3041.870551  	97.170436 
3043.307429  	97.182067 
3044.744306  	97.174509 
3046.181184  	97.141981 
3047.618062  	97.075787 
3049.054940  	97.067644 
3050.491818  	97.107186 
3051.928696  	97.090699 
3053.365574  	97.061935 
3054.802452  	97.074755 
3056.239330  	97.095863 
3057.676208  	97.107518 
3059.113086  	97.095968 
3060.549964  	97.064882 
3061.986842  	97.034376 
3063.423719  	97.009208 
3064.860597  	97.011602 
3066.297475  	97.039394 
3067.734353  	97.037919 
3069.171231  	96.993999 
3070.608109  	96.973641 
3072.044987  	96.996803 
3073.481865  	96.994723 
3074.918743  	96.981376 
3076.355621  	96.982265 
3077.792499  	96.912819 
3079.229377  	96.832035 
3080.666254  	96.848391 
3082.103132  	96.845183 
3083.540010  	96.771999 
3084.976888  	96.737648 
3086.413766  	96.771793 
3087.850644  	96.830019 
3089.287522  	96.833244 
3090.724400  	96.792978 
3092.161278  	96.805330 
3093.598156  	96.798288 
3095.035034  	96.724183 
3096.471912  	96.708177 
3097.908789  	96.729406 
3099.345667  	96.686130 
3100.782545  	96.637078 
3102.219423  	96.662729 
3103.656301  	96.711327 
3105.093179  	96.682931 
3106.530057  	96.627903 
3107.966935  	96.642331 
3109.403813  	96.638003 
3110.840691  	96.581025 
3112.277569  	96.591829 
3113.714447  	96.644195 
3115.151324  	96.637719 
3116.588202  	96.594176 
3118.025080  	96.568270 
3119.461958  	96.572684 
3120.898836  	96.574061 
3122.335714  	96.562686 
3123.772592  	96.575815 
3125.209470  	96.580866 
3126.646348  	96.536491 
3128.083226  	96.489288 
3129.520104  	96.477914 
3130.956982  	96.510288 
3132.393859  	96.557105 
3133.830737  	96.523820 
3135.267615  	96.413269 
3136.704493  	96.368673 
3138.141371  	96.435977 
3139.578249  	96.476095 
3141.015127  	96.396629 
3142.452005  	96.323822 
3143.888883  	96.355628 
3145.325761  	96.366097 
3146.762639  	96.315082 
3148.199517  	96.338140 
3149.636394  	96.398746 
3151.073272  	96.369337 
3152.510150  	96.304073 
3153.947028  	96.298059 
3155.383906  	96.334876 
3156.820784  	96.313792 
3158.257662  	96.203255 
3159.694540  	96.161056 
3161.131418  	96.244556 
3162.568296  	96.307177 
3164.005174  	96.328626 
3165.442052  	96.325909 
3166.878929  	96.241001 
3168.315807  	96.167784 
3169.752685  	96.165383 
3171.189563  	96.155387 
3172.626441  	96.174548 
3174.063319  	96.201659 
3175.500197  	96.141118 
3176.937075  	96.114676 
3178.373953  	96.173854 
3179.810831  	96.163078 
3181.247709  	96.099682 
3182.684587  	96.068765 
3184.121464  	96.043734 
3185.558342  	96.047792 
3186.995220  	96.064068 
3188.432098  	96.047789 
3189.868976  	96.061422 
3191.305854  	96.058105 
3192.742732  	95.981385 
3194.179610  	95.954421 
3195.616488  	95.959450 
3197.053366  	95.909030 
3198.490244  	95.892833 
3199.927122  	95.920823 
3201.363999  	95.946603 
3202.800877  	95.974156 
3204.237755  	95.940883 
3205.674633  	95.904390 
3207.111511  	95.953308 
3208.548389  	95.965879 
3209.985267  	95.900838 
3211.422145  	95.869213 
3212.859023  	95.893895 
3214.295901  	95.892608 
3215.732779  	95.809169 
3217.169657  	95.761325 
3218.606534  	95.801925 
3220.043412  	95.793525 
3221.480290  	95.780691 
3222.917168  	95.827014 
3224.354046  	95.816921 
3225.790924  	95.787740 
3227.227802  	95.768842 
3228.664680  	95.707843 
3230.101558  	95.719259 
3231.538436  	95.793190 
3232.975314  	95.770807 
3234.412192  	95.675148 
3235.849069  	95.625479 
3237.285947  	95.663058 
3238.722825  	95.681528 
3240.159703  	95.640850 
3241.596581  	95.679820 
3243.033459  	95.731492 
3244.470337  	95.688608 
3245.907215  	95.692358 
3247.344093  	95.728442 
3248.780971  	95.701898 
3250.217849  	95.695281 
3251.654727  	95.678529 
3253.091604  	95.579991 
3254.528482  	95.500981 
3255.965360  	95.531824 
3257.402238  	95.604681 
3258.839116  	95.626949 
3260.275994  	95.644883 
3261.712872  	95.652009 
3263.149750  	95.564942 
3264.586628  	95.513423 
3266.023506  	95.546115 
3267.460384  	95.531833 
3268.897262  	95.544298 
3270.334139  	95.549664 
3271.771017  	95.420004 
3273.207895  	95.423399 
3274.644773  	95.628965 
3276.081651  	95.660216 
3277.518529  	95.542122 
3278.955407  	95.559430 
3280.392285  	95.614833 
3281.829163  	95.571060 
3283.266041  	95.543537 
3284.702919  	95.555682 
3286.139797  	95.505879 
3287.576674  	95.476459 
3289.013552  	95.582837 
3290.450430  	95.672789 
3291.887308  	95.603295 
3293.324186  	95.526699 
3294.761064  	95.559643 
3296.197942  	95.588570 
3297.634820  	95.572567 
3299.071698  	95.565732 
3300.508576  	95.525508 
3301.945454  	95.462724 
3303.382332  	95.448447 
3304.819210  	95.454734 
3306.256087  	95.502254 
3307.692965  	95.573320 
3309.129843  	95.512057 
3310.566721  	95.401614 
3312.003599  	95.423004 
3313.440477  	95.449774 
3314.877355  	95.388660 
3316.314233  	95.352188 
3317.751111  	95.386998 
3319.187989  	95.462212 
3320.624867  	95.503008 
3322.061745  	95.455011 
3323.498622  	95.385575 
3324.935500  	95.356467 
3326.372378  	95.379162 
3327.809256  	95.434855 
3329.246134  	95.455413 
3330.683012  	95.453780 
3332.119890  	95.481650 
3333.556768  	95.493850 
3334.993646  	95.462507 
3336.430524  	95.415264 
3337.867402  	95.402843 
3339.304280  	95.471102 
3340.741157  	95.525514 
3342.178035  	95.472055 
3343.614913  	95.409043 
3345.051791  	95.408259 
3346.488669  	95.415713 
3347.925547  	95.421611 
3349.362425  	95.450183 
3350.799303  	95.466159 
3352.236181  	95.429012 
3353.673059  	95.386848 
3355.109937  	95.386504 
3356.546815  	95.378579 
3357.983692  	95.357112 
3359.420570  	95.351106 
3360.857448  	95.338261 
3362.294326  	95.356777 
3363.731204  	95.389008 
3365.168082  	95.352372 
3366.604960  	95.349962 
3368.041838  	95.395292 
3369.478716  	95.336688 
3370.915594  	95.289076 
3372.352472  	95.350661 
3373.789350  	95.349133 
3375.226227  	95.290219 
3376.663105  	95.327117 
3378.099983  	95.419903 
3379.536861  	95.435733 
3380.973739  	95.371775 
3382.410617  	95.355534 
3383.847495  	95.402128 
3385.284373  	95.433092 
3386.721251  	95.478942 
3388.158129  	95.493084 
3389.595007  	95.400102 
3391.031885  	95.343191 
3392.468762  	95.403255 
3393.905640  	95.461688 
3395.342518  	95.463422 
3396.779396  	95.465480 
3398.216274  	95.497351 
3399.653152  	95.491352 
3401.090030  	95.426761 
3402.526908  	95.398906 
3403.963786  	95.441903 
3405.400664  	95.517415 
3406.837542  	95.541499 
3408.274420  	95.455141 
3409.711297  	95.394221 
3411.148175  	95.419108 
3412.585053  	95.415381 
3414.021931  	95.438119 
3415.458809  	95.548912 
3416.895687  	95.611284 
3418.332565  	95.539040 
3419.769443  	95.424143 
3421.206321  	95.405192 
3422.643199  	95.452532 
3424.080077  	95.471855 
3425.516955  	95.488482 
3426.953832  	95.481357 
3428.390710  	95.494895 
3429.827588  	95.583959 
3431.264466  	95.585405 
3432.701344  	95.545174 
3434.138222  	95.593451 
3435.575100  	95.580843 
3437.011978  	95.559834 
3438.448856  	95.624490 
3439.885734  	95.648038 
3441.322612  	95.673073 
3442.759490  	95.678034 
3444.196367  	95.611604 
3445.633245  	95.624278 
3447.070123  	95.647220 
3448.507001  	95.648461 
3449.943879  	95.719940 
3451.380757  	95.708985 
3452.817635  	95.688268 
3454.254513  	95.766195 
3455.691391  	95.727818 
3457.128269  	95.648453 
3458.565147  	95.659920 
3460.002025  	95.671726 
3461.438902  	95.776077 
3462.875780  	95.873705 
3464.312658  	95.773835 
3465.749536  	95.710173 
3467.186414  	95.801274 
3468.623292  	95.926162 
3470.060170  	96.028892 
3471.497048  	96.027929 
3472.933926  	95.988981 
3474.370804  	96.027281 
3475.807682  	96.020804 
3477.244560  	95.968080 
3478.681437  	95.961006 
3480.118315  	95.901316 
3481.555193  	95.836840 
3482.992071  	95.909894 
3484.428949  	96.003464 
3485.865827  	96.027818 
3487.302705  	96.011402 
3488.739583  	95.941177 
3490.176461  	95.941518 
3491.613339  	96.054277 
3493.050217  	96.079383 
3494.487095  	96.044710 
3495.923972  	96.101031 
3497.360850  	96.169085 
3498.797728  	96.183436 
3500.234606  	96.129015 
3501.671484  	96.035450 
3503.108362  	96.060686 
3504.545240  	96.161402 
3505.982118  	96.226626 
3507.418996  	96.334196 
3508.855874  	96.374494 
3510.292752  	96.237431 
3511.729630  	96.184127 
3513.166507  	96.336810 
3514.603385  	96.449837 
3516.040263  	96.372564 
3517.477141  	96.310499 
3518.914019  	96.407798 
3520.350897  	96.468502 
3521.787775  	96.413100 
3523.224653  	96.373983 
3524.661531  	96.379183 
3526.098409  	96.422258 
3527.535287  	96.485002 
3528.972165  	96.568390 
3530.409043  	96.705438 
3531.845920  	96.768698 
3533.282798  	96.718220 
3534.719676  	96.667595 
3536.156554  	96.610618 
3537.593432  	96.632937 
3539.030310  	96.726922 
3540.467188  	96.662128 
3541.904066  	96.578730 
3543.340944  	96.650577 
3544.777822  	96.664234 
3546.214700  	96.626099 
3547.651578  	96.673504 
3549.088455  	96.690282 
3550.525333  	96.707949 
3551.962211  	96.791598 
3553.399089  	96.859875 
3554.835967  	96.911790 
3556.272845  	96.943601 
3557.709723  	96.939651 
3559.146601  	96.987550 
3560.583479  	97.047211 
3562.020357  	97.005849 
3563.457235  	96.929572 
3564.894113  	96.859007 
3566.330990  	96.751037 
3567.767868  	96.710764 
3569.204746  	96.812050 
3570.641624  	96.911841 
3572.078502  	97.010671 
3573.515380  	97.074765 
3574.952258  	97.056123 
3576.389136  	97.083213 
3577.826014  	97.159930 
3579.262892  	97.150007 
3580.699770  	97.093846 
3582.136648  	97.094586 
3583.573525  	97.160433 
3585.010403  	97.190790 
3586.447281  	97.073358 
3587.884159  	96.943716 
3589.321037  	97.036350 
3590.757915  	97.178522 
3592.194793  	97.250992 
3593.631671  	97.299745 
3595.068549  	97.297832 
3596.505427  	97.226356 
3597.942305  	97.172625 
3599.379183  	97.179076 
3600.816060  	97.196444 
3602.252938  	97.275767 
3603.689816  	97.373847 
3605.126694  	97.302030 
3606.563572  	97.217315 
3608.000450  	97.303884 
3609.437328  	97.298658 
3610.874206  	97.231475 
3612.311084  	97.305156 
3613.747962  	97.327731 
3615.184840  	97.305791 
3616.621718  	97.345017 
3618.058595  	97.332633 
3619.495473  	97.324946 
3620.932351  	97.374039 
3622.369229  	97.405690 
3623.806107  	97.457242 
3625.242985  	97.468269 
3626.679863  	97.442429 
3628.116741  	97.448158 
3629.553619  	97.323275 
3630.990497  	97.248955 
3632.427375  	97.331942 
3633.864253  	97.396139 
3635.301130  	97.432412 
3636.738008  	97.465224 
3638.174886  	97.453910 
3639.611764  	97.455421 
3641.048642  	97.537768 
3642.485520  	97.603970 
3643.922398  	97.585867 
3645.359276  	97.544282 
3646.796154  	97.539709 
3648.233032  	97.533933 
3649.669910  	97.546107 
3651.106788  	97.557401 
3652.543665  	97.587329 
3653.980543  	97.692820 
3655.417421  	97.767752 
3656.854299  	97.735038 
3658.291177  	97.785542 
3659.728055  	97.921865 
3661.164933  	98.018540 
3662.601811  	98.027464 
3664.038689  	97.998052 
3665.475567  	98.011698 
3666.912445  	98.062822 
3668.349323  	98.062099 
3669.786200  	98.057503 
3671.223078  	98.033137 
3672.659956  	98.056265 
3674.096834  	98.195090 
3675.533712  	98.215080 
3676.970590  	98.037309 
3678.407468  	98.114687 
3679.844346  	98.217640 
3681.281224  	98.261104 
3682.718102  	98.349062 
3684.154980  	98.421189 
3685.591858  	98.495734 
3687.028735  	98.542731 
3688.465613  	98.499343 
3689.902491  	98.441239 
3691.339369  	98.413827 
3692.776247  	98.441302 
3694.213125  	98.528396 
3695.650003  	98.580309 
3697.086881  	98.607196 
3698.523759  	98.684391 
3699.960637  	98.717800 
3701.397515  	98.663532 
3702.834393  	98.602489 
3704.271270  	98.595153 
3705.708148  	98.628748 
3707.145026  	98.705609 
3708.581904  	98.762312 
3710.018782  	98.760993 
3711.455660  	98.707881 
3712.892538  	98.675122 
3714.329416  	98.680771 
3715.766294  	98.729284 
3717.203172  	98.790692 
3718.640050  	98.798092 
3720.076928  	98.816026 
3721.513805  	98.851259 
3722.950683  	98.857031 
3724.387561  	98.833404 
3725.824439  	98.788574 
3727.261317  	98.730299 
3728.698195  	98.770492 
3730.135073  	98.926118 
3731.571951  	99.024816 
3733.008829  	98.978208 
3734.445707  	98.903618 
3735.882585  	98.817418 
3737.319463  	98.727615 
3738.756340  	98.791144 
3740.193218  	98.837006 
3741.630096  	98.818075 
3743.066974  	98.886613 
3744.503852  	98.938338 
3745.940730  	98.726292 
3747.377608  	98.745101 
3748.814486  	98.850956 
3750.251364  	98.820495 
3751.688242  	98.761896 
3753.125120  	98.751250 
3754.561998  	98.795821 
3755.998875  	98.873130 
3757.435753  	98.880728 
3758.872631  	98.822040 
3760.309509  	98.770459 
3761.746387  	98.768487 
3763.183265  	98.858984 
3764.620143  	98.926535 
3766.057021  	98.867555 
3767.493899  	98.839446 
3768.930777  	98.880981 
3770.367655  	98.879508 
3771.804533  	98.860320 
3773.241411  	98.856238 
3774.678288  	98.881975 
3776.115166  	98.958341 
3777.552044  	99.015114 
3778.988922  	99.046458 
3780.425800  	99.037946 
3781.862678  	99.023654 
3783.299556  	99.066599 
3784.736434  	99.071397 
3786.173312  	99.025538 
3787.610190  	99.044918 
3789.047068  	99.104548 
3790.483946  	99.174333 
3791.920823  	99.215200 
3793.357701  	99.185224 
3794.794579  	99.156217 
3796.231457  	99.102712 
3797.668335  	99.010202 
3799.105213  	99.053544 
3800.542091  	99.173789 
3801.978969  	99.172876 
3803.415847  	99.049847 
3804.852725  	99.043098 
3806.289603  	99.149968 
3807.726481  	99.176227 
3809.163358  	99.036431 
3810.600236  	98.977002 
3812.037114  	99.011847 
3813.473992  	99.072248 
3814.910870  	99.147676 
3816.347748  	99.111750 
3817.784626  	98.962019 
3819.221504  	98.992500 
3820.658382  	99.054826 
3822.095260  	98.871614 
3823.532138  	98.852947 
3824.969016  	99.033001 
3826.405893  	99.083659 
3827.842771  	99.014411 
3829.279649  	99.030302 
3830.716527  	99.051711 
3832.153405  	99.089009 
3833.590283  	99.154506 
3835.027161  	99.132706 
3836.464039  	99.108773 
3837.900917  	99.091080 
3839.337795  	98.982099 
3840.774673  	98.927236 
3842.211551  	98.947475 
3843.648428  	98.993280 
3845.085306  	99.025443 
3846.522184  	99.002946 
3847.959062  	99.062749 
3849.395940  	99.194142 
3850.832818  	99.231661 
3852.269696  	99.246607 
3853.706574  	99.180621 
3855.143452  	98.951821 
3856.580330  	98.930165 
3858.017208  	98.990815 
3859.454086  	99.032870 
3860.890963  	99.041864 
3862.327841  	99.032159 
3863.764719  	99.100913 
3865.201597  	99.120361 
3866.638475  	98.985969 
3868.075353  	98.955360 
3869.512231  	98.923623 
3870.949109  	98.818472 
3872.385987  	98.940456 
3873.822865  	99.028268 
3875.259743  	99.025727 
3876.696621  	99.121694 
3878.133498  	99.153429 
3879.570376  	99.052802 
3881.007254  	98.958876 
3882.444132  	98.959222 
3883.881010  	99.027888 
3885.317888  	99.061631 
3886.754766  	98.972455 
3888.191644  	98.987829 
3889.628522  	99.074872 
3891.065400  	99.088161 
3892.502278  	99.041559 
3893.939156  	99.021924 
3895.376033  	99.058146 
3896.812911  	99.141740 
3898.249789  	99.167372 
3899.686667  	99.061212 
3901.123545  	98.911447 
3902.560423  	98.866588 
3903.997301  	98.901012 
3905.434179  	98.906342 
3906.871057  	98.917077 
3908.307935  	99.002939 
3909.744813  	99.104957 
3911.181691  	99.124576 
3912.618568  	99.077556 
3914.055446  	99.061624 
3915.492324  	99.065000 
3916.929202  	98.986208 
3918.366080  	98.931886 
3919.802958  	98.943534 
3921.239836  	98.962655 
3922.676714  	99.065723 
3924.113592  	99.111463 
3925.550470  	98.997481 
3926.987348  	99.019223 
3928.424226  	99.134689 
3929.861103  	99.113412 
3931.297981  	99.066265 
3932.734859  	99.024816 
3934.171737  	98.969912 
3935.608615  	99.058119 
3937.045493  	99.158756 
3938.482371  	99.139256 
3939.919249  	99.120890 
3941.356127  	99.090295 
3942.793005  	99.013255 
3944.229883  	99.037722 
3945.666761  	99.125726 
3947.103638  	99.113401 
3948.540516  	99.012761 
3949.977394  	98.960007 
3951.414272  	98.992973 
3952.851150  	99.008070 
3954.288028  	99.031321 
3955.724906  	99.103080 
3957.161784  	99.086584 
3958.598662  	99.072478 
3960.035540  	99.116395 
3961.472418  	99.137535 
3962.909296  	99.073618 
3964.346173  	99.035790 
3965.783051  	99.083013 
3967.219929  	99.151110 
3968.656807  	99.158088 
3970.093685  	99.130736 
3971.530563  	99.129060 
3972.967441  	99.100630 
3974.404319  	99.057210 
3975.841197  	99.079494 
3977.278075  	99.095741 
3978.714953  	99.071813 
3980.151831  	99.098266 
3981.588708  	99.146052 
3983.025586  	99.161821 
3984.462464  	99.179154 
3985.899342  	99.195517 
3987.336220  	99.202966 
3988.773098  	99.172799 
3990.209976  	99.085113 
3991.646854  	99.058071 
3993.083732  	99.115664 
3994.520610  	99.141917 
3995.957488  	99.169614 
3997.394366  	99.207927 
3998.831244  	99.186109 
4000.268121  	99.191881 