##TITLE=No Description
##DATA TYPE=INFRARED SPECTRUM
##XUNITS=1/CM
##YUNITS=%T
399.452061  	11.560370 
400.888939  	11.271736 
402.325817  	10.602546 
403.762695  	10.178477 
405.199573  	10.478705 
406.636451  	9.923404 
408.073328  	9.615284 
409.510206  	10.180124 
410.947084  	9.861807 
412.383962  	9.494949 
413.820840  	9.506700 
415.257718  	9.311918 
416.694596  	9.313761 
418.131474  	10.375549 
419.568352  	11.244881 
421.005230  	11.186582 
422.442108  	10.434118 
423.878986  	9.789922 
425.315863  	9.462397 
426.752741  	9.648929 
428.189619  	10.328875 
429.626497  	10.816726 
431.063375  	10.591210 
432.500253  	10.502175 
433.937131  	10.415694 
435.374009  	10.560742 
436.810887  	10.685265 
438.247765  	10.351533 
439.684643  	10.445803 
441.121521  	10.926596 
442.558398  	11.175431 
443.995276  	11.798342 
445.432154  	13.033570 
446.869032  	13.587037 
448.305910  	13.048700 
449.742788  	12.839805 
451.179666  	13.728205 
452.616544  	14.739794 
454.053422  	15.217627 
455.490300  	15.597800 
456.927178  	16.217337 
458.364056  	17.385894 
459.800933  	18.479585 
461.237811  	19.248964 
462.674689  	19.987537 
464.111567  	20.653696 
465.548445  	21.519952 
466.985323  	22.971583 
468.422201  	24.542414 
469.859079  	25.779317 
471.295957  	26.815519 
472.732835  	28.252428 
474.169713  	30.055760 
475.606591  	31.435640 
477.043469  	32.668706 
478.480346  	34.064775 
479.917224  	35.212562 
481.354102  	36.454669 
482.790980  	37.891837 
484.227858  	38.917829 
485.664736  	39.760697 
487.101614  	40.788378 
488.538492  	41.695280 
489.975370  	42.301971 
491.412248  	42.900181 
492.849126  	43.511831 
494.286004  	43.919730 
495.722881  	44.488511 
497.159759  	44.982935 
498.596637  	45.029423 
500.033515  	45.320277 
501.470393  	45.675713 
502.907271  	45.539796 
504.344149  	45.514618 
505.781027  	45.595092 
507.217905  	45.560621 
508.654783  	45.443387 
510.091661  	45.097856 
511.528539  	44.825965 
512.965416  	44.654818 
514.402294  	44.411118 
515.839172  	44.296033 
517.276050  	43.937600 
518.712928  	43.417073 
520.149806  	43.240062 
521.586684  	42.990196 
523.023562  	42.663427 
524.460440  	42.439574 
525.897318  	42.132207 
527.334196  	42.020021 
528.771074  	41.968190 
530.207951  	41.673533 
531.644829  	41.321932 
533.081707  	41.014432 
534.518585  	40.942733 
535.955463  	40.898625 
537.392341  	40.594689 
538.829219  	40.507447 
540.266097  	40.465479 
541.702975  	40.195159 
543.139853  	40.121057 
544.576731  	40.018533 
546.013609  	39.879524 
547.450486  	40.067313 
548.887364  	40.118426 
550.324242  	40.023189 
551.761120  	40.107035 
553.197998  	40.153357 
554.634876  	40.133137 
556.071754  	40.065480 
557.508632  	40.007219 
558.945510  	40.086820 
560.382388  	40.116935 
561.819266  	40.150390 
563.256144  	40.307833 
564.693021  	40.417530 
566.129899  	40.482766 
567.566777  	40.547983 
569.003655  	40.634742 
570.440533  	40.702590 
571.877411  	40.662764 
573.314289  	40.702497 
574.751167  	40.849844 
576.188045  	41.003343 
577.624923  	41.217137 
579.061801  	41.343576 
580.498679  	41.391686 
581.935556  	41.473428 
583.372434  	41.501949 
584.809312  	41.589054 
586.246190  	41.722486 
587.683068  	41.786650 
589.119946  	41.879875 
590.556824  	41.902862 
591.993702  	41.928006 
593.430580  	42.136039 
594.867458  	42.320699 
596.304336  	42.441022 
597.741214  	42.480178 
599.178091  	42.438210 
600.614969  	42.559812 
602.051847  	42.689256 
603.488725  	42.693186 
604.925603  	42.777663 
606.362481  	42.875862 
607.799359  	42.976859 
609.236237  	43.042994 
610.673115  	43.109128 
612.109993  	43.165538 
613.546871  	43.220098 
614.983749  	43.217473 
616.420626  	43.297615 
617.857504  	43.338138 
619.294382  	43.407011 
620.731260  	43.510984 
622.168138  	43.479674 
623.605016  	43.507239 
625.041894  	43.556643 
626.478772  	43.467419 
627.915650  	43.362050 
629.352528  	43.267375 
630.789406  	43.245610 
632.226284  	43.235576 
633.663161  	43.168810 
635.100039  	43.230910 
636.536917  	43.311561 
637.973795  	43.333298 
639.410673  	43.322076 
640.847551  	43.312897 
642.284429  	43.307593 
643.721307  	43.350841 
645.158185  	43.408438 
646.595063  	43.442395 
648.031941  	43.469847 
649.468819  	43.469541 
650.905696  	43.512516 
652.342574  	43.543987 
653.779452  	43.541308 
655.216330  	43.512456 
656.653208  	43.471668 
658.090086  	43.581949 
659.526964  	43.708609 
660.963842  	43.700879 
662.400720  	43.785683 
663.837598  	43.847003 
665.274476  	43.758539 
666.711354  	43.773392 
668.148231  	43.838950 
669.585109  	43.951970 
671.021987  	43.970619 
672.458865  	43.964453 
673.895743  	44.015987 
675.332621  	44.038922 
676.769499  	44.075593 
678.206377  	44.186850 
679.643255  	44.204174 
681.080133  	44.200212 
682.517011  	44.292481 
683.953889  	44.353445 
685.390766  	44.408123 
686.827644  	44.459180 
688.264522  	44.482541 
689.701400  	44.540545 
691.138278  	44.589614 
692.575156  	44.649697 
694.012034  	44.710839 
695.448912  	44.721571 
696.885790  	44.833623 
698.322668  	44.909599 
699.759546  	44.902935 
701.196424  	45.043028 
702.633301  	45.132349 
704.070179  	45.133833 
705.507057  	45.204222 
706.943935  	45.223008 
708.380813  	45.276434 
709.817691  	45.374666 
711.254569  	45.427928 
712.691447  	45.536261 
714.128325  	45.605504 
715.565203  	45.613931 
717.002081  	45.698795 
718.438959  	45.765866 
719.875837  	45.812959 
721.312714  	45.870919 
722.749592  	45.890606 
724.186470  	45.990581 
725.623348  	46.092710 
727.060226  	46.150362 
728.497104  	46.217685 
729.933982  	46.267507 
731.370860  	46.322223 
732.807738  	46.373620 
734.244616  	46.383660 
735.681494  	46.527278 
737.118372  	46.618792 
738.555249  	46.593357 
739.992127  	46.672782 
741.429005  	46.754196 
742.865883  	46.828848 
744.302761  	46.927549 
745.739639  	46.969270 
747.176517  	47.076698 
748.613395  	47.157804 
750.050273  	47.168247 
751.487151  	47.263321 
752.924029  	47.294033 
754.360907  	47.311688 
755.797784  	47.416434 
757.234662  	47.418438 
758.671540  	47.418928 
760.108418  	47.443024 
761.545296  	47.372989 
762.982174  	47.333112 
764.419052  	47.260753 
765.855930  	47.123497 
767.292808  	46.986661 
768.729686  	46.744287 
770.166564  	46.496841 
771.603442  	46.269887 
773.040319  	45.948891 
774.477197  	45.676143 
775.914075  	45.494906 
777.350953  	45.390588 
778.787831  	45.346586 
780.224709  	45.258910 
781.661587  	45.245156 
783.098465  	45.324214 
784.535343  	45.428918 
785.972221  	45.619656 
787.409099  	45.781708 
788.845977  	45.958325 
790.282854  	46.228155 
791.719732  	46.454407 
793.156610  	46.742163 
794.593488  	47.113483 
796.030366  	47.475043 
797.467244  	47.889524 
798.904122  	48.266206 
800.341000  	48.657755 
801.777878  	49.137399 
803.214756  	49.567604 
804.651634  	50.037493 
806.088512  	50.534674 
807.525389  	51.000782 
808.962267  	51.553412 
810.399145  	52.052372 
811.836023  	52.504918 
813.272901  	53.050145 
814.709779  	53.585517 
816.146657  	54.149026 
817.583535  	54.714183 
819.020413  	55.228306 
820.457291  	55.787609 
821.894169  	56.289717 
823.331047  	56.801929 
824.767924  	57.418194 
826.204802  	57.945728 
827.641680  	58.463593 
829.078558  	59.033255 
830.515436  	59.536264 
831.952314  	60.034220 
833.389192  	60.530260 
834.826070  	61.018677 
836.262948  	61.450449 
837.699826  	61.762552 
839.136704  	62.109601 
840.573582  	62.440463 
842.010459  	62.706090 
843.447337  	63.022529 
844.884215  	63.219490 
846.321093  	63.333411 
847.757971  	63.497041 
849.194849  	63.556614 
850.631727  	63.637341 
852.068605  	63.790706 
853.505483  	63.875578 
854.942361  	63.979980 
856.379239  	64.034851 
857.816117  	64.072310 
859.252994  	64.189362 
860.689872  	64.181968 
862.126750  	64.188142 
863.563628  	64.326702 
865.000506  	64.379652 
866.437384  	64.409806 
867.874262  	64.415226 
869.311140  	64.392639 
870.748018  	64.471136 
872.184896  	64.476609 
873.621774  	64.444502 
875.058652  	64.490287 
876.495529  	64.450339 
877.932407  	64.392255 
879.369285  	64.342357 
880.806163  	64.283452 
882.243041  	64.297319 
883.679919  	64.213896 
885.116797  	64.082176 
886.553675  	64.007043 
887.990553  	63.864377 
889.427431  	63.771511 
890.864309  	63.653513 
892.301187  	63.449134 
893.738064  	63.373512 
895.174942  	63.209514 
896.611820  	62.945282 
898.048698  	62.806884 
899.485576  	62.592530 
900.922454  	62.369928 
902.359332  	62.202794 
903.796210  	61.938565 
905.233088  	61.749673 
906.669966  	61.560544 
908.106844  	61.283208 
909.543722  	61.062005 
910.980599  	60.767149 
912.417477  	60.483280 
913.854355  	60.239973 
915.291233  	59.859218 
916.728111  	59.549649 
918.164989  	59.244338 
919.601867  	58.820534 
921.038745  	58.487754 
922.475623  	58.106213 
923.912501  	57.713379 
925.349379  	57.405796 
926.786257  	56.956967 
928.223134  	56.557178 
929.660012  	56.229645 
931.096890  	55.786097 
932.533768  	55.431219 
933.970646  	55.087161 
935.407524  	54.715509 
936.844402  	54.431277 
938.281280  	54.065907 
939.718158  	53.768944 
941.155036  	53.572610 
942.591914  	53.283366 
944.028792  	53.074674 
945.465670  	52.890206 
946.902547  	52.687421 
948.339425  	52.584722 
949.776303  	52.435278 
951.213181  	52.357673 
952.650059  	52.372125 
954.086937  	52.323544 
955.523815  	52.381784 
956.960693  	52.444110 
958.397571  	52.484734 
959.834449  	52.667053 
961.271327  	52.803611 
962.708205  	52.988406 
964.145082  	53.288735 
965.581960  	53.527020 
967.018838  	53.838435 
968.455716  	54.169372 
969.892594  	54.496042 
971.329472  	54.940687 
972.766350  	55.328645 
974.203228  	55.721384 
975.640106  	56.121057 
977.076984  	56.399637 
978.513862  	56.734061 
979.950740  	56.985726 
981.387617  	57.085652 
982.824495  	57.181467 
984.261373  	57.087701 
985.698251  	56.896333 
987.135129  	56.635420 
988.572007  	56.124625 
990.008885  	55.580982 
991.445763  	54.885726 
992.882641  	53.954669 
994.319519  	53.065102 
995.756397  	52.012314 
997.193275  	50.829961 
998.630152  	49.645598 
1000.067030  	48.236607 
1001.503908  	46.862084 
1002.940786  	45.480309 
1004.377664  	43.887595 
1005.814542  	42.379911 
1007.251420  	40.755191 
1008.688298  	39.048588 
1010.125176  	37.493848 
1011.562054  	35.746915 
1012.998932  	34.054123 
1014.435810  	32.455331 
1015.872687  	30.666943 
1017.309565  	29.091988 
1018.746443  	27.509511 
1020.183321  	25.835410 
1021.620199  	24.444195 
1023.057077  	22.947226 
1024.493955  	21.553164 
1025.930833  	20.395160 
1027.367711  	19.075220 
1028.804589  	18.019174 
1030.241467  	17.041353 
1031.678345  	15.968880 
1033.115222  	15.253432 
1034.552100  	14.445963 
1035.988978  	13.702543 
1037.425856  	13.253818 
1038.862734  	12.595500 
1040.299612  	12.162538 
1041.736490  	11.833818 
1043.173368  	11.320159 
1044.610246  	11.139553 
1046.047124  	10.860349 
1047.484002  	10.562869 
1048.920880  	10.566606 
1050.357757  	10.314350 
1051.794635  	10.234761 
1053.231513  	10.287239 
1054.668391  	10.099081 
1056.105269  	10.242630 
1057.542147  	10.302375 
1058.979025  	10.243059 
1060.415903  	10.469361 
1061.852781  	10.439469 
1063.289659  	10.560413 
1064.726537  	10.867337 
1066.163415  	10.896829 
1067.600292  	11.214396 
1069.037170  	11.451102 
1070.474048  	11.529985 
1071.910926  	11.972592 
1073.347804  	12.197757 
1074.784682  	12.478196 
1076.221560  	12.979767 
1077.658438  	13.245611 
1079.095316  	13.813501 
1080.532194  	14.384578 
1081.969072  	14.749497 
1083.405950  	15.469001 
1084.842827  	16.095874 
1086.279705  	16.764233 
1087.716583  	17.668071 
1089.153461  	18.413841 
1090.590339  	19.444233 
1092.027217  	20.592780 
1093.464095  	21.701376 
1094.900973  	23.192713 
1096.337851  	24.635334 
1097.774729  	26.189038 
1099.211607  	28.086023 
1100.648485  	29.881544 
1102.085362  	31.869754 
1103.522240  	33.958440 
1104.959118  	35.891195 
1106.395996  	37.918170 
1107.832874  	39.745718 
1109.269752  	41.422680 
1110.706630  	43.076231 
1112.143508  	44.380026 
1113.580386  	45.573426 
1115.017264  	46.652598 
1116.454142  	47.454508 
1117.891020  	48.242413 
1119.327897  	48.853323 
1120.764775  	49.335105 
1122.201653  	49.884294 
1123.638531  	50.268137 
1125.075409  	50.631617 
1126.512287  	50.996162 
1127.949165  	51.247118 
1129.386043  	51.580863 
1130.822921  	51.825506 
1132.259799  	52.025568 
1133.696677  	52.343975 
1135.133555  	52.526230 
1136.570432  	52.718441 
1138.007310  	52.959878 
1139.444188  	53.108754 
1140.881066  	53.375989 
1142.317944  	53.603817 
1143.754822  	53.752446 
1145.191700  	54.005758 
1146.628578  	54.183038 
1148.065456  	54.381723 
1149.502334  	54.607806 
1150.939212  	54.734331 
1152.376090  	54.992773 
1153.812967  	55.234702 
1155.249845  	55.395553 
1156.686723  	55.677757 
1158.123601  	55.883905 
1159.560479  	56.070683 
1160.997357  	56.326482 
1162.434235  	56.535921 
1163.871113  	56.841943 
1165.307991  	57.108400 
1166.744869  	57.300988 
1168.181747  	57.625099 
1169.618625  	57.887213 
1171.055502  	58.140689 
1172.492380  	58.472441 
1173.929258  	58.715709 
1175.366136  	59.020016 
1176.803014  	59.323962 
1178.239892  	59.563730 
1179.676770  	59.928211 
1181.113648  	60.237507 
1182.550526  	60.506247 
1183.987404  	60.862530 
1185.424282  	61.143215 
1186.861160  	61.440582 
1188.298038  	61.755255 
1189.734915  	62.026133 
1191.171793  	62.380054 
1192.608671  	62.685601 
1194.045549  	62.976718 
1195.482427  	63.350711 
1196.919305  	63.646811 
1198.356183  	63.961309 
1199.793061  	64.308008 
1201.229939  	64.615539 
1202.666817  	64.998878 
1204.103695  	65.349830 
1205.540573  	65.684497 
1206.977450  	66.073221 
1208.414328  	66.389554 
1209.851206  	66.774462 
1211.288084  	67.211177 
1212.724962  	67.565682 
1214.161840  	67.993816 
1215.598718  	68.427868 
1217.035596  	68.841083 
1218.472474  	69.323515 
1219.909352  	69.747155 
1221.346230  	70.203478 
1222.783108  	70.734465 
1224.219985  	71.219529 
1225.656863  	71.757325 
1227.093741  	72.306798 
1228.530619  	72.843669 
1229.967497  	73.456190 
1231.404375  	74.049368 
1232.841253  	74.674346 
1234.278131  	75.362280 
1235.715009  	76.020315 
1237.151887  	76.722261 
1238.588765  	77.423271 
1240.025643  	78.106907 
1241.462520  	78.879691 
1242.899398  	79.646064 
1244.336276  	80.399264 
1245.773154  	81.207482 
1247.210032  	82.000973 
1248.646910  	82.777060 
1250.083788  	83.521736 
1251.520666  	84.217390 
1252.957544  	84.914345 
1254.394422  	85.570239 
1255.831300  	86.155600 
1257.268178  	86.704130 
1258.705055  	87.199196 
1260.141933  	87.644385 
1261.578811  	88.054112 
1263.015689  	88.409637 
1264.452567  	88.724668 
1265.889445  	89.007570 
1267.326323  	89.248286 
1268.763201  	89.466649 
1270.200079  	89.657700 
1271.636957  	89.824480 
1273.073835  	90.016843 
1274.510713  	90.211423 
1275.947590  	90.358109 
1277.384468  	90.474572 
1278.821346  	90.574311 
1280.258224  	90.680357 
1281.695102  	90.806535 
1283.131980  	90.913961 
1284.568858  	91.010032 
1286.005736  	91.099101 
1287.442614  	91.159834 
1288.879492  	91.237897 
1290.316370  	91.325520 
1291.753248  	91.383879 
1293.190125  	91.448675 
1294.627003  	91.508064 
1296.063881  	91.553324 
1297.500759  	91.614184 
1298.937637  	91.662534 
1300.374515  	91.705925 
1301.811393  	91.742873 
1303.248271  	91.785157 
1304.685149  	91.809097 
1306.122027  	91.827169 
1307.558905  	91.847855 
1308.995783  	91.880447 
1310.432660  	91.896963 
1311.869538  	91.906950 
1313.306416  	91.929147 
1314.743294  	91.957076 
1316.180172  	91.978484 
1317.617050  	91.983781 
1319.053928  	91.988383 
1320.490806  	92.007339 
1321.927684  	92.035544 
1323.364562  	92.053455 
1324.801440  	92.087016 
1326.238318  	92.105907 
1327.675195  	92.119398 
1329.112073  	92.118674 
1330.548951  	92.092051 
1331.985829  	92.102704 
1333.422707  	92.120574 
1334.859585  	92.113753 
1336.296463  	92.119365 
1337.733341  	92.097414 
1339.170219  	92.062180 
1340.607097  	92.075080 
1342.043975  	92.107562 
1343.480853  	92.132253 
1344.917730  	92.154412 
1346.354608  	92.157575 
1347.791486  	92.156361 
1349.228364  	92.141418 
1350.665242  	92.135161 
1352.102120  	92.152571 
1353.538998  	92.142310 
1354.975876  	92.122741 
1356.412754  	92.127484 
1357.849632  	92.134075 
1359.286510  	92.128377 
1360.723388  	92.097831 
1362.160265  	92.059199 
1363.597143  	92.048678 
1365.034021  	92.057154 
1366.470899  	92.059373 
1367.907777  	92.048230 
1369.344655  	92.044198 
1370.781533  	92.035385 
1372.218411  	92.001073 
1373.655289  	91.961166 
1375.092167  	91.943371 
1376.529045  	91.941274 
1377.965923  	91.930274 
1379.402800  	91.904306 
1380.839678  	91.893213 
1382.276556  	91.894872 
1383.713434  	91.873060 
1385.150312  	91.844297 
1386.587190  	91.816718 
1388.024068  	91.780220 
1389.460946  	91.797066 
1390.897824  	91.796243 
1392.334702  	91.732198 
1393.771580  	91.674667 
1395.208458  	91.611224 
1396.645335  	91.560107 
1398.082213  	91.549271 
1399.519091  	91.485995 
1400.955969  	91.448975 
1402.392847  	91.419884 
1403.829725  	91.331017 
1405.266603  	91.259673 
1406.703481  	91.241548 
1408.140359  	91.220843 
1409.577237  	91.151983 
1411.014115  	91.023477 
1412.450993  	90.921891 
1413.887871  	90.854279 
1415.324748  	90.723495 
1416.761626  	90.628999 
1418.198504  	90.632497 
1419.635382  	90.571640 
1421.072260  	90.435269 
1422.509138  	90.306730 
1423.946016  	90.199555 
1425.382894  	90.164863 
1426.819772  	90.137306 
1428.256650  	90.042110 
1429.693528  	89.942619 
1431.130406  	89.871661 
1432.567283  	89.780120 
1434.004161  	89.657960 
1435.441039  	89.569808 
1436.877917  	89.529957 
1438.314795  	89.521442 
1439.751673  	89.463570 
1441.188551  	89.377010 
1442.625429  	89.295155 
1444.062307  	89.230869 
1445.499185  	89.188437 
1446.936063  	89.160139 
1448.372941  	89.135236 
1449.809818  	89.114967 
1451.246696  	89.086482 
1452.683574  	88.995258 
1454.120452  	88.909540 
1455.557330  	88.916113 
1456.994208  	88.899785 
1458.431086  	88.936401 
1459.867964  	89.053240 
1461.304842  	89.103042 
1462.741720  	89.030024 
1464.178598  	88.946293 
1465.615476  	88.947383 
1467.052353  	89.009288 
1468.489231  	89.096262 
1469.926109  	89.189521 
1471.362987  	89.268585 
1472.799865  	89.272513 
1474.236743  	89.224154 
1475.673621  	89.239598 
1477.110499  	89.357249 
1478.547377  	89.511414 
1479.984255  	89.602625 
1481.421133  	89.590418 
1482.858011  	89.568659 
1484.294888  	89.598038 
1485.731766  	89.641446 
1487.168644  	89.711686 
1488.605522  	89.779865 
1490.042400  	89.817178 
1491.479278  	89.899237 
1492.916156  	89.967505 
1494.353034  	90.037515 
1495.789912  	90.120010 
1497.226790  	90.146653 
1498.663668  	90.166674 
1500.100546  	90.219001 
1501.537423  	90.244041 
1502.974301  	90.298329 
1504.411179  	90.377243 
1505.848057  	90.378266 
1507.284935  	90.276291 
1508.721813  	90.337452 
1510.158691  	90.415004 
1511.595569  	90.459310 
1513.032447  	90.472453 
1514.469325  	90.475177 
1515.906203  	90.442664 
1517.343081  	90.404809 
1518.779958  	90.442411 
1520.216836  	90.492018 
1521.653714  	90.528435 
1523.090592  	90.514486 
1524.527470  	90.486725 
1525.964348  	90.475294 
1527.401226  	90.475639 
1528.838104  	90.535790 
1530.274982  	90.576028 
1531.711860  	90.473293 
1533.148738  	90.359396 
1534.585616  	90.306682 
1536.022493  	90.241635 
1537.459371  	90.234505 
1538.896249  	90.268799 
1540.333127  	90.302521 
1541.770005  	90.300105 
1543.206883  	90.129162 
1544.643761  	89.969051 
1546.080639  	89.965349 
1547.517517  	90.010397 
1548.954395  	89.974022 
1550.391273  	89.822872 
1551.828151  	89.782982 
1553.265028  	89.786156 
1554.701906  	89.608146 
1556.138784  	89.525373 
1557.575662  	89.582570 
1559.012540  	89.431756 
1560.449418  	89.421515 
1561.886296  	89.344531 
1563.323174  	89.236989 
1564.760052  	89.159456 
1566.196930  	89.033892 
1567.633808  	88.921083 
1569.070686  	88.842677 
1570.507563  	88.712413 
1571.944441  	88.612660 
1573.381319  	88.519230 
1574.818197  	88.401070 
1576.255075  	88.269091 
1577.691953  	88.113286 
1579.128831  	87.982671 
1580.565709  	87.864765 
1582.002587  	87.680292 
1583.439465  	87.504785 
1584.876343  	87.276935 
1586.313221  	87.006767 
1587.750098  	86.796212 
1589.186976  	86.623859 
1590.623854  	86.459715 
1592.060732  	86.225996 
1593.497610  	85.870580 
1594.934488  	85.579171 
1596.371366  	85.347169 
1597.808244  	85.074712 
1599.245122  	84.818308 
1600.682000  	84.438382 
1602.118878  	84.021038 
1603.555756  	83.594281 
1604.992633  	83.158760 
1606.429511  	82.857404 
1607.866389  	82.495320 
1609.303267  	82.050618 
1610.740145  	81.662441 
1612.177023  	81.262072 
1613.613901  	80.831795 
1615.050779  	80.483156 
1616.487657  	80.147436 
1617.924535  	79.831162 
1619.361413  	79.459595 
1620.798291  	79.017711 
1622.235168  	78.721694 
1623.672046  	78.470577 
1625.108924  	78.195288 
1626.545802  	77.949794 
1627.982680  	77.731877 
1629.419558  	77.553168 
1630.856436  	77.395052 
1632.293314  	77.164854 
1633.730192  	77.101911 
1635.167070  	77.225383 
1636.603948  	77.315513 
1638.040826  	77.261696 
1639.477703  	77.153612 
1640.914581  	77.195693 
1642.351459  	77.291894 
1643.788337  	77.296265 
1645.225215  	77.462031 
1646.662093  	77.741498 
1648.098971  	77.957282 
1649.535849  	78.209092 
1650.972727  	78.315437 
1652.409605  	78.366542 
1653.846483  	78.960322 
1655.283361  	79.237669 
1656.720239  	79.369511 
1658.157116  	79.706168 
1659.593994  	79.934942 
1661.030872  	80.133247 
1662.467750  	80.422492 
1663.904628  	80.732784 
1665.341506  	81.118986 
1666.778384  	81.455128 
1668.215262  	81.759449 
1669.652140  	82.114093 
1671.089018  	82.436703 
1672.525896  	82.732775 
1673.962774  	83.033018 
1675.399651  	83.370993 
1676.836529  	83.749064 
1678.273407  	84.016787 
1679.710285  	84.274179 
1681.147163  	84.556140 
1682.584041  	84.800538 
1684.020919  	85.217754 
1685.457797  	85.715090 
1686.894675  	85.876419 
1688.331553  	86.173299 
1689.768431  	86.517542 
1691.205309  	86.762549 
1692.642186  	87.048068 
1694.079064  	87.275340 
1695.515942  	87.503692 
1696.952820  	87.820812 
1698.389698  	88.016558 
1699.826576  	88.241166 
1701.263454  	88.565394 
1702.700332  	88.754023 
1704.137210  	88.979452 
1705.574088  	89.252685 
1707.010966  	89.477981 
1708.447844  	89.720248 
1709.884721  	89.897935 
1711.321599  	90.088503 
1712.758477  	90.289666 
1714.195355  	90.459228 
1715.632233  	90.643900 
1717.069111  	90.808572 
1718.505989  	90.962298 
1719.942867  	91.163785 
1721.379745  	91.298590 
1722.816623  	91.459316 
1724.253501  	91.631238 
1725.690379  	91.737386 
1727.127256  	91.880840 
1728.564134  	91.979632 
1730.001012  	92.015320 
1731.437890  	92.132446 
1732.874768  	92.255024 
1734.311646  	92.320095 
1735.748524  	92.477773 
1737.185402  	92.566192 
1738.622280  	92.646529 
1740.059158  	92.739295 
1741.496036  	92.783411 
1742.932914  	92.849993 
1744.369791  	92.913342 
1745.806669  	92.989284 
1747.243547  	93.099934 
1748.680425  	93.138539 
1750.117303  	93.181465 
1751.554181  	93.284838 
1752.991059  	93.374427 
1754.427937  	93.475179 
1755.864815  	93.547306 
1757.301693  	93.595114 
1758.738571  	93.654463 
1760.175449  	93.658982 
1761.612326  	93.666146 
1763.049204  	93.755111 
1764.486082  	93.816122 
1765.922960  	93.887206 
1767.359838  	93.909878 
1768.796716  	93.915176 
1770.233594  	94.002739 
1771.670472  	94.045102 
1773.107350  	94.048136 
1774.544228  	94.106945 
1775.981106  	94.126272 
1777.417984  	94.118689 
1778.854861  	94.122028 
1780.291739  	94.164198 
1781.728617  	94.224943 
1783.165495  	94.234639 
1784.602373  	94.253719 
1786.039251  	94.312811 
1787.476129  	94.306556 
1788.913007  	94.281002 
1790.349885  	94.338462 
1791.786763  	94.420452 
1793.223641  	94.512617 
1794.660519  	94.484666 
1796.097396  	94.434949 
1797.534274  	94.452956 
1798.971152  	94.453771 
1800.408030  	94.478261 
1801.844908  	94.507660 
1803.281786  	94.542743 
1804.718664  	94.635014 
1806.155542  	94.631825 
1807.592420  	94.611464 
1809.029298  	94.702493 
1810.466176  	94.713719 
1811.903054  	94.709380 
1813.339931  	94.787054 
1814.776809  	94.819227 
1816.213687  	94.813052 
1817.650565  	94.784758 
1819.087443  	94.761648 
1820.524321  	94.781446 
1821.961199  	94.764983 
1823.398077  	94.806807 
1824.834955  	94.860055 
1826.271833  	94.798009 
1827.708711  	94.796221 
1829.145589  	94.825136 
1830.582466  	94.816115 
1832.019344  	94.848835 
1833.456222  	94.848616 
1834.893100  	94.811199 
1836.329978  	94.818069 
1837.766856  	94.828312 
1839.203734  	94.850049 
1840.640612  	94.861029 
1842.077490  	94.854141 
1843.514368  	94.879410 
1844.951246  	94.846046 
1846.388124  	94.819474 
1847.825001  	94.842567 
1849.261879  	94.830727 
1850.698757  	94.844285 
1852.135635  	94.900315 
1853.572513  	94.848576 
1855.009391  	94.818374 
1856.446269  	94.831068 
1857.883147  	94.861703 
1859.320025  	94.945014 
1860.756903  	94.940858 
1862.193781  	94.845428 
1863.630659  	94.798131 
1865.067536  	94.820761 
1866.504414  	94.888876 
1867.941292  	94.976144 
1869.378170  	95.003755 
1870.815048  	94.862692 
1872.251926  	94.794053 
1873.688804  	94.986459 
1875.125682  	95.076728 
1876.562560  	94.961652 
1877.999438  	94.926519 
1879.436316  	94.911607 
1880.873194  	94.950011 
1882.310072  	95.073889 
1883.746949  	95.076283 
1885.183827  	95.106290 
1886.620705  	95.175832 
1888.057583  	95.137933 
1889.494461  	95.182447 
1890.931339  	95.237909 
1892.368217  	95.170809 
1893.805095  	95.165346 
1895.241973  	95.215662 
1896.678851  	95.305550 
1898.115729  	95.350252 
1899.552607  	95.353594 
1900.989484  	95.397526 
1902.426362  	95.411706 
1903.863240  	95.469349 
1905.300118  	95.468647 
1906.736996  	95.438934 
1908.173874  	95.422169 
1909.610752  	95.502745 
1911.047630  	95.525198 
1912.484508  	95.618406 
1913.921386  	95.652852 
1915.358264  	95.667905 
1916.795142  	95.771314 
1918.232019  	95.762038 
1919.668897  	95.727359 
1921.105775  	95.790906 
1922.542653  	95.828524 
1923.979531  	95.920343 
1925.416409  	95.977789 
1926.853287  	95.866192 
1928.290165  	95.873732 
1929.727043  	95.862522 
1931.163921  	95.788303 
1932.600799  	95.798741 
1934.037677  	95.797316 
1935.474554  	95.849558 
1936.911432  	95.825381 
1938.348310  	95.769947 
1939.785188  	95.905078 
1941.222066  	95.937435 
1942.658944  	95.981888 
1944.095822  	96.059699 
1945.532700  	95.868915 
1946.969578  	95.901599 
1948.406456  	95.983786 
1949.843334  	95.996994 
1951.280212  	96.266245 
1952.717089  	96.181754 
1954.153967  	95.764654 
1955.590845  	95.945529 
1957.027723  	96.201669 
1958.464601  	96.151167 
1959.901479  	96.192824 
1961.338357  	96.313353 
1962.775235  	96.365048 
1964.212113  	96.120538 
1965.648991  	96.107778 
1967.085869  	96.525837 
1968.522747  	96.478929 
1969.959624  	96.373736 
1971.396502  	96.342762 
1972.833380  	96.241935 
1974.270258  	96.340672 
1975.707136  	96.327492 
1977.144014  	96.116316 
1978.580892  	96.134119 
1980.017770  	96.097193 
1981.454648  	96.003912 
1982.891526  	95.940606 
1984.328404  	95.854480 
1985.765282  	95.875843 
1987.202159  	95.772089 
1988.639037  	95.653649 
1990.075915  	95.742455 
1991.512793  	95.689209 
1992.949671  	95.687386 
1994.386549  	95.797926 
1995.823427  	95.682630 
1997.260305  	95.496425 
1998.697183  	95.621794 
2000.134061  	95.719130 
2001.570939  	95.756543 
2003.007817  	95.498293 
2004.444694  	95.461203 
2005.881572  	95.806204 
2007.318450  	95.625743 
2008.755328  	95.481668 
2010.192206  	95.662660 
2011.629084  	95.546686 
2013.065962  	95.483575 
2014.502840  	95.388763 
2015.939718  	95.340930 
2017.376596  	95.584354 
2018.813474  	95.344847 
2020.250352  	95.077685 
2021.687229  	95.367059 
2023.124107  	95.412793 
2024.560985  	95.329812 
2025.997863  	95.628795 
2027.434741  	95.916117 
2028.871619  	95.720189 
2030.308497  	95.278857 
2031.745375  	95.356719 
2033.182253  	95.545498 
2034.619131  	95.306266 
2036.056009  	95.220205 
2037.492887  	95.320731 
2038.929764  	95.414229 
2040.366642  	95.377894 
2041.803520  	95.154249 
2043.240398  	95.296122 
2044.677276  	95.343074 
2046.114154  	94.914837 
2047.551032  	95.027393 
2048.987910  	95.326820 
2050.424788  	94.980055 
2051.861666  	94.787642 
2053.298544  	95.013618 
2054.735422  	95.171849 
2056.172299  	95.131914 
2057.609177  	94.968964 
2059.046055  	94.850690 
2060.482933  	94.889237 
2061.919811  	94.905694 
2063.356689  	94.718322 
2064.793567  	94.643183 
2066.230445  	94.863564 
2067.667323  	94.765028 
2069.104201  	94.483463 
2070.541079  	94.727662 
2071.977957  	94.923622 
2073.414834  	94.673372 
2074.851712  	94.561843 
2076.288590  	94.613385 
2077.725468  	94.717770 
2079.162346  	94.794118 
2080.599224  	94.645543 
2082.036102  	94.631739 
2083.472980  	94.728427 
2084.909858  	94.574688 
2086.346736  	94.501608 
2087.783614  	94.604034 
2089.220492  	94.578134 
2090.657369  	94.505757 
2092.094247  	94.579987 
2093.531125  	94.761097 
2094.968003  	94.762035 
2096.404881  	94.647837 
2097.841759  	94.844771 
2099.278637  	95.051258 
2100.715515  	94.907685 
2102.152393  	94.732913 
2103.589271  	94.726531 
2105.026149  	94.813326 
2106.463027  	94.816001 
2107.899904  	94.751639 
2109.336782  	94.869633 
2110.773660  	94.944287 
2112.210538  	94.774627 
2113.647416  	94.709004 
2115.084294  	94.889690 
2116.521172  	95.088848 
2117.958050  	95.016462 
2119.394928  	94.792468 
2120.831806  	94.829431 
2122.268684  	94.873269 
2123.705562  	94.714122 
2125.142440  	94.796484 
2126.579317  	94.986307 
2128.016195  	94.909415 
2129.453073  	94.843235 
2130.889951  	94.986951 
2132.326829  	95.173303 
2133.763707  	95.166560 
2135.200585  	95.019247 
2136.637463  	95.012827 
2138.074341  	95.046883 
2139.511219  	95.101154 
2140.948097  	95.264639 
2142.384975  	95.257920 
2143.821852  	95.139569 
2145.258730  	95.152950 
2146.695608  	95.272087 
2148.132486  	95.420872 
2149.569364  	95.410236 
2151.006242  	95.429744 
2152.443120  	95.666954 
2153.879998  	95.663025 
2155.316876  	95.383659 
2156.753754  	95.331922 
2158.190632  	95.543821 
2159.627510  	95.538899 
2161.064387  	95.359836 
2162.501265  	95.570951 
2163.938143  	95.731899 
2165.375021  	95.598039 
2166.811899  	95.437191 
2168.248777  	94.968596 
2169.685655  	94.604873 
2171.122533  	94.713600 
2172.559411  	94.945009 
2173.996289  	95.332624 
2175.433167  	95.324941 
2176.870045  	94.685056 
2178.306922  	94.747787 
2179.743800  	95.224820 
2181.180678  	95.141361 
2182.617556  	95.087695 
2184.054434  	95.064683 
2185.491312  	94.975896 
2186.928190  	95.137233 
2188.365068  	95.024853 
2189.801946  	94.694235 
2191.238824  	94.635234 
2192.675702  	94.699673 
2194.112580  	94.775788 
2195.549457  	94.758393 
2196.986335  	94.646146 
2198.423213  	94.611862 
2199.860091  	94.507962 
2201.296969  	94.392400 
2202.733847  	94.401127 
2204.170725  	94.465792 
2205.607603  	94.627272 
2207.044481  	94.634804 
2208.481359  	94.444239 
2209.918237  	94.545247 
2211.355115  	94.791977 
2212.791992  	94.778560 
2214.228870  	94.663491 
2215.665748  	94.629088 
2217.102626  	94.654542 
2218.539504  	94.652391 
2219.976382  	94.611393 
2221.413260  	94.611822 
2222.850138  	94.601176 
2224.287016  	94.490205 
2225.723894  	94.395170 
2227.160772  	94.572807 
2228.597650  	94.818987 
2230.034527  	94.621644 
2231.471405  	94.304637 
2232.908283  	94.394241 
2234.345161  	94.611269 
2235.782039  	94.698320 
2237.218917  	94.670759 
2238.655795  	94.547422 
2240.092673  	94.534176 
2241.529551  	94.554229 
2242.966429  	94.477723 
2244.403307  	94.512342 
2245.840185  	94.574333 
2247.277062  	94.464405 
2248.713940  	94.332702 
2250.150818  	94.365346 
2251.587696  	94.452493 
2253.024574  	94.449557 
2254.461452  	94.380918 
2255.898330  	94.416641 
2257.335208  	94.505985 
2258.772086  	94.561310 
2260.208964  	94.592721 
2261.645842  	94.583121 
2263.082720  	94.597726 
2264.519597  	94.591358 
2265.956475  	94.566060 
2267.393353  	94.639823 
2268.830231  	94.664998 
2270.267109  	94.625038 
2271.703987  	94.704577 
2273.140865  	94.792971 
2274.577743  	94.754341 
2276.014621  	94.695385 
2277.451499  	94.712023 
2278.888377  	94.725306 
2280.325255  	94.716059 
2281.762132  	94.732109 
2283.199010  	94.790220 
2284.635888  	94.818967 
2286.072766  	94.844792 
2287.509644  	94.853629 
2288.946522  	94.846326 
2290.383400  	94.854013 
2291.820278  	94.866546 
2293.257156  	94.869273 
2294.694034  	94.874803 
2296.130912  	94.851816 
2297.567790  	94.831997 
2299.004667  	94.881360 
2300.441545  	94.920011 
2301.878423  	94.936584 
2303.315301  	94.959433 
2304.752179  	94.973923 
2306.189057  	94.961109 
2307.625935  	94.954634 
2309.062813  	94.977399 
2310.499691  	94.987361 
2311.936569  	94.942297 
2313.373447  	94.961543 
2314.810325  	94.986214 
2316.247202  	94.967938 
2317.684080  	94.980786 
2319.120958  	94.992481 
2320.557836  	94.975054 
2321.994714  	94.962447 
2323.431592  	94.944635 
2324.868470  	94.969959 
2326.305348  	95.050180 
2327.742226  	95.082644 
2329.179104  	95.065314 
2330.615982  	95.046641 
2332.052860  	95.030707 
2333.489737  	95.065131 
2334.926615  	95.098646 
2336.363493  	95.086360 
2337.800371  	95.055065 
2339.237249  	95.040710 
2340.674127  	95.075321 
2342.111005  	95.112027 
2343.547883  	95.102138 
2344.984761  	95.101711 
2346.421639  	95.115045 
2347.858517  	95.112766 
2349.295395  	95.100604 
2350.732273  	95.127690 
2352.169150  	95.174278 
2353.606028  	95.147847 
2355.042906  	95.125474 
2356.479784  	95.192915 
2357.916662  	95.225890 
2359.353540  	95.160748 
2360.790418  	95.144346 
2362.227296  	95.222739 
2363.664174  	95.289394 
2365.101052  	95.274456 
2366.537930  	95.244866 
2367.974808  	95.301299 
2369.411685  	95.323926 
2370.848563  	95.255244 
2372.285441  	95.296016 
2373.722319  	95.446268 
2375.159197  	95.503497 
2376.596075  	95.466982 
2378.032953  	95.481683 
2379.469831  	95.538565 
2380.906709  	95.540222 
2382.343587  	95.570214 
2383.780465  	95.661941 
2385.217343  	95.714887 
2386.654220  	95.716346 
2388.091098  	95.744817 
2389.527976  	95.770401 
2390.964854  	95.748285 
2392.401732  	95.747637 
2393.838610  	95.809495 
2395.275488  	95.831297 
2396.712366  	95.798617 
2398.149244  	95.807868 
2399.586122  	95.830115 
2401.023000  	95.844446 
2402.459878  	95.841574 
2403.896755  	95.767619 
2405.333633  	95.758390 
2406.770511  	95.852483 
2408.207389  	95.856413 
2409.644267  	95.821203 
2411.081145  	95.880556 
2412.518023  	95.955934 
2413.954901  	95.958265 
2415.391779  	95.900612 
2416.828657  	95.893297 
2418.265535  	95.913739 
2419.702413  	95.852111 
2421.139290  	95.868626 
2422.576168  	96.009200 
2424.013046  	96.044541 
2425.449924  	95.997024 
2426.886802  	95.995936 
2428.323680  	96.025399 
2429.760558  	96.068130 
2431.197436  	96.088909 
2432.634314  	96.115384 
2434.071192  	96.194467 
2435.508070  	96.215333 
2436.944948  	96.126729 
2438.381825  	96.071326 
2439.818703  	96.123108 
2441.255581  	96.127924 
2442.692459  	96.031993 
2444.129337  	96.032601 
2445.566215  	96.113132 
2447.003093  	96.107881 
2448.439971  	96.116523 
2449.876849  	96.187604 
2451.313727  	96.189365 
2452.750605  	96.127934 
2454.187483  	96.111222 
2455.624360  	96.156710 
2457.061238  	96.140511 
2458.498116  	96.050408 
2459.934994  	96.050029 
2461.371872  	96.091264 
2462.808750  	96.062995 
2464.245628  	96.046359 
2465.682506  	96.047859 
2467.119384  	96.069224 
2468.556262  	96.142611 
2469.993140  	96.143189 
2471.430018  	96.079190 
2472.866895  	96.099501 
2474.303773  	96.140369 
2475.740651  	96.108936 
2477.177529  	96.108833 
2478.614407  	96.172235 
2480.051285  	96.155928 
2481.488163  	96.089861 
2482.925041  	96.119282 
2484.361919  	96.141409 
2485.798797  	96.091489 
2487.235675  	96.089700 
2488.672553  	96.111765 
2490.109430  	96.106758 
2491.546308  	96.087220 
2492.983186  	96.050524 
2494.420064  	96.069772 
2495.856942  	96.126760 
2497.293820  	96.131288 
2498.730698  	96.101237 
2500.167576  	96.036321 
2501.604454  	95.994046 
2503.041332  	96.023454 
2504.478210  	96.032682 
2505.915088  	96.080988 
2507.351965  	96.216512 
2508.788843  	96.259826 
2510.225721  	96.189896 
2511.662599  	96.114796 
2513.099477  	96.051738 
2514.536355  	96.022773 
2515.973233  	96.041496 
2517.410111  	96.087568 
2518.846989  	96.112062 
2520.283867  	96.067738 
2521.720745  	96.015043 
2523.157623  	96.025723 
2524.594500  	96.058333 
2526.031378  	96.047833 
2527.468256  	96.045378 
2528.905134  	96.099498 
2530.342012  	96.090034 
2531.778890  	96.021662 
2533.215768  	96.048498 
2534.652646  	96.098547 
2536.089524  	96.079766 
2537.526402  	96.024121 
2538.963280  	95.954814 
2540.400158  	95.979261 
2541.837035  	96.040590 
2543.273913  	95.990036 
2544.710791  	95.979067 
2546.147669  	96.042689 
2547.584547  	96.023662 
2549.021425  	95.967058 
2550.458303  	95.931066 
2551.895181  	95.930644 
2553.332059  	95.941399 
2554.768937  	95.890061 
2556.205815  	95.905883 
2557.642693  	95.989159 
2559.079570  	95.933282 
2560.516448  	95.867263 
2561.953326  	95.924686 
2563.390204  	95.928838 
2564.827082  	95.830277 
2566.263960  	95.753029 
2567.700838  	95.781092 
2569.137716  	95.851563 
2570.574594  	95.809298 
2572.011472  	95.720064 
2573.448350  	95.738560 
2574.885228  	95.774255 
2576.322105  	95.727614 
2577.758983  	95.679335 
2579.195861  	95.672173 
2580.632739  	95.679707 
2582.069617  	95.720229 
2583.506495  	95.743737 
2584.943373  	95.668340 
2586.380251  	95.578188 
2587.817129  	95.550450 
2589.254007  	95.566744 
2590.690885  	95.629327 
2592.127763  	95.630066 
2593.564641  	95.525735 
2595.001518  	95.508453 
2596.438396  	95.575234 
2597.875274  	95.557230 
2599.312152  	95.497653 
2600.749030  	95.490655 
2602.185908  	95.521028 
2603.622786  	95.519383 
2605.059664  	95.453258 
2606.496542  	95.403358 
2607.933420  	95.407228 
2609.370298  	95.413203 
2610.807176  	95.411783 
2612.244053  	95.423805 
2613.680931  	95.452166 
2615.117809  	95.439126 
2616.554687  	95.370731 
2617.991565  	95.346246 
2619.428443  	95.348688 
2620.865321  	95.320067 
2622.302199  	95.326211 
2623.739077  	95.350219 
2625.175955  	95.340684 
2626.612833  	95.319799 
2628.049711  	95.282362 
2629.486588  	95.281274 
2630.923466  	95.343464 
2632.360344  	95.367185 
2633.797222  	95.336618 
2635.234100  	95.300821 
2636.670978  	95.272750 
2638.107856  	95.280810 
2639.544734  	95.303766 
2640.981612  	95.313373 
2642.418490  	95.334444 
2643.855368  	95.348882 
2645.292246  	95.336440 
2646.729123  	95.315727 
2648.166001  	95.286185 
2649.602879  	95.250775 
2651.039757  	95.237624 
2652.476635  	95.263449 
2653.913513  	95.292478 
2655.350391  	95.288153 
2656.787269  	95.286442 
2658.224147  	95.292073 
2659.661025  	95.261214 
2661.097903  	95.237932 
2662.534781  	95.265415 
2663.971658  	95.282529 
2665.408536  	95.259558 
2666.845414  	95.237840 
2668.282292  	95.230289 
2669.719170  	95.228499 
2671.156048  	95.232001 
2672.592926  	95.221836 
2674.029804  	95.203099 
2675.466682  	95.209049 
2676.903560  	95.211179 
2678.340438  	95.191307 
2679.777316  	95.205120 
2681.214193  	95.228504 
2682.651071  	95.196536 
2684.087949  	95.167863 
2685.524827  	95.190480 
2686.961705  	95.189267 
2688.398583  	95.129234 
2689.835461  	95.099367 
2691.272339  	95.141732 
2692.709217  	95.159159 
2694.146095  	95.114396 
2695.582973  	95.088540 
2697.019851  	95.088272 
2698.456728  	95.087622 
2699.893606  	95.116493 
2701.330484  	95.142594 
2702.767362  	95.118412 
2704.204240  	95.084639 
2705.641118  	95.078141 
2707.077996  	95.080807 
2708.514874  	95.057670 
2709.951752  	95.001889 
2711.388630  	94.964642 
2712.825508  	94.973808 
2714.262386  	94.976834 
2715.699263  	94.946525 
2717.136141  	94.923882 
2718.573019  	94.917686 
2720.009897  	94.900307 
2721.446775  	94.882835 
2722.883653  	94.879738 
2724.320531  	94.872250 
2725.757409  	94.852140 
2727.194287  	94.827599 
2728.631165  	94.805219 
2730.068043  	94.786769 
2731.504921  	94.771800 
2732.941798  	94.762323 
2734.378676  	94.746659 
2735.815554  	94.722183 
2737.252432  	94.708061 
2738.689310  	94.699287 
2740.126188  	94.690352 
2741.563066  	94.675488 
2742.999944  	94.627196 
2744.436822  	94.588089 
2745.873700  	94.602113 
2747.310578  	94.592184 
2748.747456  	94.532402 
2750.184333  	94.505057 
2751.621211  	94.511374 
2753.058089  	94.486496 
2754.494967  	94.434913 
2755.931845  	94.409377 
2757.368723  	94.407006 
2758.805601  	94.375595 
2760.242479  	94.334565 
2761.679357  	94.340090 
2763.116235  	94.355263 
2764.553113  	94.332801 
2765.989991  	94.303241 
2767.426868  	94.280974 
2768.863746  	94.244591 
2770.300624  	94.204475 
2771.737502  	94.178700 
2773.174380  	94.162095 
2774.611258  	94.144475 
2776.048136  	94.107021 
2777.485014  	94.056720 
2778.921892  	94.035958 
2780.358770  	94.032244 
2781.795648  	94.011303 
2783.232526  	93.993427 
2784.669403  	93.972943 
2786.106281  	93.938799 
2787.543159  	93.923531 
2788.980037  	93.896701 
2790.416915  	93.832674 
2791.853793  	93.796760 
2793.290671  	93.783560 
2794.727549  	93.735685 
2796.164427  	93.699947 
2797.601305  	93.715062 
2799.038183  	93.712364 
2800.475061  	93.658521 
2801.911938  	93.611451 
2803.348816  	93.593419 
2804.785694  	93.570707 
2806.222572  	93.538796 
2807.659450  	93.503687 
2809.096328  	93.458615 
2810.533206  	93.411606 
2811.970084  	93.372339 
2813.406962  	93.353109 
2814.843840  	93.345583 
2816.280718  	93.318100 
2817.717596  	93.292352 
2819.154474  	93.280855 
2820.591351  	93.239923 
2822.028229  	93.195342 
2823.465107  	93.176629 
2824.901985  	93.123349 
2826.338863  	93.041077 
2827.775741  	93.007466 
2829.212619  	93.009978 
2830.649497  	92.974204 
2832.086375  	92.899943 
2833.523253  	92.857497 
2834.960131  	92.844333 
2836.397009  	92.794543 
2837.833886  	92.740405 
2839.270764  	92.736743 
2840.707642  	92.729032 
2842.144520  	92.679515 
2843.581398  	92.626749 
2845.018276  	92.591369 
2846.455154  	92.560731 
2847.892032  	92.511572 
2849.328910  	92.449108 
2850.765788  	92.407945 
2852.202666  	92.373214 
2853.639544  	92.332044 
2855.076421  	92.322844 
2856.513299  	92.315109 
2857.950177  	92.256299 
2859.387055  	92.190841 
2860.823933  	92.153635 
2862.260811  	92.123939 
2863.697689  	92.081857 
2865.134567  	92.013293 
2866.571445  	91.967349 
2868.008323  	91.981629 
2869.445201  	91.973167 
2870.882079  	91.912433 
2872.318956  	91.859153 
2873.755834  	91.807681 
2875.192712  	91.763140 
2876.629590  	91.747623 
2878.066468  	91.716452 
2879.503346  	91.661626 
2880.940224  	91.599961 
2882.377102  	91.529097 
2883.813980  	91.488386 
2885.250858  	91.451859 
2886.687736  	91.367903 
2888.124614  	91.321883 
2889.561491  	91.331716 
2890.998369  	91.280772 
2892.435247  	91.181729 
2893.872125  	91.119888 
2895.309003  	91.093033 
2896.745881  	91.084458 
2898.182759  	91.068422 
2899.619637  	91.015645 
2901.056515  	90.948696 
2902.493393  	90.877278 
2903.930271  	90.803120 
2905.367149  	90.763223 
2906.804026  	90.737080 
2908.240904  	90.668000 
2909.677782  	90.592920 
2911.114660  	90.570515 
2912.551538  	90.546482 
2913.988416  	90.453177 
2915.425294  	90.348360 
2916.862172  	90.293078 
2918.299050  	90.239678 
2919.735928  	90.162683 
2921.172806  	90.101831 
2922.609684  	90.062940 
2924.046561  	90.016993 
2925.483439  	89.937743 
2926.920317  	89.832715 
2928.357195  	89.739539 
2929.794073  	89.681772 
2931.230951  	89.671644 
2932.667829  	89.654787 
2934.104707  	89.549413 
2935.541585  	89.429204 
2936.978463  	89.381251 
2938.415341  	89.338067 
2939.852219  	89.268433 
2941.289096  	89.197962 
2942.725974  	89.118475 
2944.162852  	89.054299 
2945.599730  	88.997644 
2947.036608  	88.912591 
2948.473486  	88.839736 
2949.910364  	88.780682 
2951.347242  	88.684918 
2952.784120  	88.584128 
2954.220998  	88.514944 
2955.657876  	88.443851 
2957.094754  	88.354873 
2958.531631  	88.268634 
2959.968509  	88.186342 
2961.405387  	88.102531 
2962.842265  	88.026785 
2964.279143  	87.953660 
2965.716021  	87.869404 
2967.152899  	87.774825 
2968.589777  	87.683993 
2970.026655  	87.605269 
2971.463533  	87.516777 
2972.900411  	87.430138 
2974.337289  	87.369332 
2975.774166  	87.266395 
2977.211044  	87.115947 
2978.647922  	87.002791 
2980.084800  	86.910104 
2981.521678  	86.831033 
2982.958556  	86.777234 
2984.395434  	86.670404 
2985.832312  	86.542846 
2987.269190  	86.461482 
2988.706068  	86.368877 
2990.142946  	86.273281 
2991.579824  	86.190532 
2993.016701  	86.071880 
2994.453579  	85.938984 
2995.890457  	85.807428 
2997.327335  	85.689604 
2998.764213  	85.621925 
3000.201091  	85.548094 
3001.637969  	85.420842 
3003.074847  	85.282339 
3004.511725  	85.178647 
3005.948603  	85.101595 
3007.385481  	84.978062 
3008.822359  	84.811008 
3010.259236  	84.665260 
3011.696114  	84.517783 
3013.132992  	84.384065 
3014.569870  	84.312528 
3016.006748  	84.239672 
3017.443626  	84.115607 
3018.880504  	83.973348 
3020.317382  	83.855678 
3021.754260  	83.754268 
3023.191138  	83.616247 
3024.628016  	83.464487 
3026.064894  	83.342647 
3027.501771  	83.215554 
3028.938649  	83.074840 
3030.375527  	82.940852 
3031.812405  	82.799329 
3033.249283  	82.642234 
3034.686161  	82.492304 
3036.123039  	82.367262 
3037.559917  	82.239095 
3038.996795  	82.111543 
3040.433673  	82.006888 
3041.870551  	81.873937 
3043.307429  	81.733703 
3044.744306  	81.630473 
3046.181184  	81.483711 
3047.618062  	81.305046 
3049.054940  	81.157836 
3050.491818  	80.984966 
3051.928696  	80.806505 
3053.365574  	80.681657 
3054.802452  	80.544115 
3056.239330  	80.375080 
3057.676208  	80.250825 
3059.113086  	80.144670 
3060.549964  	79.982791 
3061.986842  	79.840391 
3063.423719  	79.731376 
3064.860597  	79.523369 
3066.297475  	79.301222 
3067.734353  	79.186551 
3069.171231  	79.054962 
3070.608109  	78.874422 
3072.044987  	78.702222 
3073.481865  	78.526041 
3074.918743  	78.371981 
3076.355621  	78.223344 
3077.792499  	78.085840 
3079.229377  	78.003950 
3080.666254  	77.883899 
3082.103132  	77.671315 
3083.540010  	77.421775 
3084.976888  	77.191188 
3086.413766  	77.023103 
3087.850644  	76.880790 
3089.287522  	76.749856 
3090.724400  	76.603860 
3092.161278  	76.373125 
3093.598156  	76.175916 
3095.035034  	76.052701 
3096.471912  	75.869654 
3097.908789  	75.657209 
3099.345667  	75.457402 
3100.782545  	75.284188 
3102.219423  	75.151364 
3103.656301  	74.978181 
3105.093179  	74.814650 
3106.530057  	74.646224 
3107.966935  	74.392529 
3109.403813  	74.201001 
3110.840691  	74.033025 
3112.277569  	73.811284 
3113.714447  	73.663001 
3115.151324  	73.477154 
3116.588202  	73.239929 
3118.025080  	73.073062 
3119.461958  	72.868579 
3120.898836  	72.666181 
3122.335714  	72.470467 
3123.772592  	72.213723 
3125.209470  	72.046410 
3126.646348  	71.878225 
3128.083226  	71.638310 
3129.520104  	71.458608 
3130.956982  	71.226608 
3132.393859  	70.974016 
3133.830737  	70.773510 
3135.267615  	70.507991 
3136.704493  	70.302876 
3138.141371  	70.152274 
3139.578249  	69.926911 
3141.015127  	69.736332 
3142.452005  	69.572657 
3143.888883  	69.418549 
3145.325761  	69.234765 
3146.762639  	68.919400 
3148.199517  	68.660724 
3149.636394  	68.484149 
3151.073272  	68.230427 
3152.510150  	67.990491 
3153.947028  	67.791008 
3155.383906  	67.604210 
3156.820784  	67.382145 
3158.257662  	67.107732 
3159.694540  	66.944202 
3161.131418  	66.763786 
3162.568296  	66.501512 
3164.005174  	66.368325 
3165.442052  	66.157830 
3166.878929  	65.833692 
3168.315807  	65.651238 
3169.752685  	65.476290 
3171.189563  	65.261846 
3172.626441  	65.047270 
3174.063319  	64.811431 
3175.500197  	64.654958 
3176.937075  	64.433695 
3178.373953  	64.135266 
3179.810831  	63.950451 
3181.247709  	63.778670 
3182.684587  	63.604664 
3184.121464  	63.393574 
3185.558342  	63.118829 
3186.995220  	62.965582 
3188.432098  	62.773406 
3189.868976  	62.488371 
3191.305854  	62.308391 
3192.742732  	62.138636 
3194.179610  	62.031333 
3195.616488  	61.913220 
3197.053366  	61.614254 
3198.490244  	61.429020 
3199.927122  	61.305736 
3201.363999  	61.071503 
3202.800877  	60.924638 
3204.237755  	60.780565 
3205.674633  	60.620377 
3207.111511  	60.490884 
3208.548389  	60.304406 
3209.985267  	60.205423 
3211.422145  	60.067608 
3212.859023  	59.813897 
3214.295901  	59.693264 
3215.732779  	59.583605 
3217.169657  	59.464624 
3218.606534  	59.381935 
3220.043412  	59.215952 
3221.480290  	59.135773 
3222.917168  	59.005407 
3224.354046  	58.752572 
3225.790924  	58.716511 
3227.227802  	58.689289 
3228.664680  	58.527272 
3230.101558  	58.390857 
3231.538436  	58.219261 
3232.975314  	58.125575 
3234.412192  	58.034772 
3235.849069  	57.921335 
3237.285947  	57.993736 
3238.722825  	57.928174 
3240.159703  	57.738620 
3241.596581  	57.697541 
3243.033459  	57.580141 
3244.470337  	57.539559 
3245.907215  	57.578872 
3247.344093  	57.406343 
3248.780971  	57.299252 
3250.217849  	57.289223 
3251.654727  	57.257060 
3253.091604  	57.251539 
3254.528482  	57.131842 
3255.965360  	57.061440 
3257.402238  	57.056343 
3258.839116  	56.966223 
3260.275994  	56.973785 
3261.712872  	56.898822 
3263.149750  	56.738700 
3264.586628  	56.741917 
3266.023506  	56.706409 
3267.460384  	56.728858 
3268.897262  	56.765526 
3270.334139  	56.593482 
3271.771017  	56.570247 
3273.207895  	56.580402 
3274.644773  	56.460193 
3276.081651  	56.534714 
3277.518529  	56.562533 
3278.955407  	56.475373 
3280.392285  	56.480208 
3281.829163  	56.441424 
3283.266041  	56.446641 
3284.702919  	56.423146 
3286.139797  	56.309540 
3287.576674  	56.332266 
3289.013552  	56.309289 
3290.450430  	56.255900 
3291.887308  	56.296755 
3293.324186  	56.220054 
3294.761064  	56.156669 
3296.197942  	56.126441 
3297.634820  	56.078809 
3299.071698  	56.151031 
3300.508576  	56.068033 
3301.945454  	55.922365 
3303.382332  	56.013692 
3304.819210  	56.063071 
3306.256087  	56.039603 
3307.692965  	55.988232 
3309.129843  	55.859843 
3310.566721  	55.825563 
3312.003599  	55.780439 
3313.440477  	55.775981 
3314.877355  	55.887275 
3316.314233  	55.834244 
3317.751111  	55.789655 
3319.187989  	55.825160 
3320.624867  	55.740772 
3322.061745  	55.718533 
3323.498622  	55.696722 
3324.935500  	55.610183 
3326.372378  	55.586455 
3327.809256  	55.502878 
3329.246134  	55.481145 
3330.683012  	55.538761 
3332.119890  	55.495816 
3333.556768  	55.490043 
3334.993646  	55.474204 
3336.430524  	55.451968 
3337.867402  	55.504758 
3339.304280  	55.451032 
3340.741157  	55.456098 
3342.178035  	55.545267 
3343.614913  	55.515619 
3345.051791  	55.537280 
3346.488669  	55.528091 
3347.925547  	55.444141 
3349.362425  	55.438477 
3350.799303  	55.381131 
3352.236181  	55.389051 
3353.673059  	55.410264 
3355.109937  	55.288095 
3356.546815  	55.359318 
3357.983692  	55.465900 
3359.420570  	55.403329 
3360.857448  	55.424624 
3362.294326  	55.395454 
3363.731204  	55.345336 
3365.168082  	55.365503 
3366.604960  	55.343907 
3368.041838  	55.470015 
3369.478716  	55.524880 
3370.915594  	55.429261 
3372.352472  	55.586414 
3373.789350  	55.713164 
3375.226227  	55.657841 
3376.663105  	55.669550 
3378.099983  	55.705719 
3379.536861  	55.862969 
3380.973739  	55.954134 
3382.410617  	55.854941 
3383.847495  	55.941935 
3385.284373  	56.067796 
3386.721251  	56.118265 
3388.158129  	56.227481 
3389.595007  	56.206857 
3391.031885  	56.238276 
3392.468762  	56.408870 
3393.905640  	56.477563 
3395.342518  	56.540103 
3396.779396  	56.564498 
3398.216274  	56.575503 
3399.653152  	56.681964 
3401.090030  	56.738689 
3402.526908  	56.884269 
3403.963786  	57.103636 
3405.400664  	57.207528 
3406.837542  	57.319010 
3408.274420  	57.387431 
3409.711297  	57.495155 
3411.148175  	57.718288 
3412.585053  	57.794426 
3414.021931  	57.874289 
3415.458809  	58.041345 
3416.895687  	58.148994 
3418.332565  	58.295851 
3419.769443  	58.390161 
3421.206321  	58.532411 
3422.643199  	58.802002 
3424.080077  	58.910115 
3425.516955  	59.048128 
3426.953832  	59.241048 
3428.390710  	59.308616 
3429.827588  	59.472345 
3431.264466  	59.557993 
3432.701344  	59.596568 
3434.138222  	59.871405 
3435.575100  	60.028802 
3437.011978  	60.107733 
3438.448856  	60.299745 
3439.885734  	60.458792 
3441.322612  	60.741035 
3442.759490  	60.935706 
3444.196367  	60.952749 
3445.633245  	61.208624 
3447.070123  	61.457615 
3448.507001  	61.561636 
3449.943879  	61.797190 
3451.380757  	62.055896 
3452.817635  	62.290047 
3454.254513  	62.432614 
3455.691391  	62.497952 
3457.128269  	62.677800 
3458.565147  	62.850061 
3460.002025  	63.046643 
3461.438902  	63.294438 
3462.875780  	63.417616 
3464.312658  	63.600174 
3465.749536  	63.845974 
3467.186414  	64.034820 
3468.623292  	64.210055 
3470.060170  	64.270154 
3471.497048  	64.439442 
3472.933926  	64.784994 
3474.370804  	64.967117 
3475.807682  	65.069455 
3477.244560  	65.162946 
3478.681437  	65.327128 
3480.118315  	65.668752 
3481.555193  	65.840531 
3482.992071  	65.957188 
3484.428949  	66.206343 
3485.865827  	66.327234 
3487.302705  	66.559381 
3488.739583  	66.876834 
3490.176461  	66.980870 
3491.613339  	67.120299 
3493.050217  	67.285655 
3494.487095  	67.494952 
3495.923972  	67.855673 
3497.360850  	68.037814 
3498.797728  	68.128905 
3500.234606  	68.317913 
3501.671484  	68.449956 
3503.108362  	68.618028 
3504.545240  	68.883879 
3505.982118  	69.202197 
3507.418996  	69.417892 
3508.855874  	69.437374 
3510.292752  	69.643575 
3511.729630  	69.983668 
3513.166507  	70.132177 
3514.603385  	70.331028 
3516.040263  	70.603806 
3517.477141  	70.856358 
3518.914019  	71.097307 
3520.350897  	71.256530 
3521.787775  	71.510492 
3523.224653  	71.708161 
3524.661531  	71.721890 
3526.098409  	71.959260 
3527.535287  	72.257841 
3528.972165  	72.461245 
3530.409043  	72.747574 
3531.845920  	72.918975 
3533.282798  	73.060416 
3534.719676  	73.245779 
3536.156554  	73.374741 
3537.593432  	73.695469 
3539.030310  	74.019525 
3540.467188  	74.190345 
3541.904066  	74.431875 
3543.340944  	74.577401 
3544.777822  	74.699060 
3546.214700  	74.924334 
3547.651578  	75.042919 
3549.088455  	75.266660 
3550.525333  	75.531716 
3551.962211  	75.650240 
3553.399089  	75.892493 
3554.835967  	76.154947 
3556.272845  	76.317456 
3557.709723  	76.536685 
3559.146601  	76.729218 
3560.583479  	76.920790 
3562.020357  	77.164578 
3563.457235  	77.403598 
3564.894113  	77.595202 
3566.330990  	77.660078 
3567.767868  	77.880611 
3569.204746  	78.275731 
3570.641624  	78.428611 
3572.078502  	78.582195 
3573.515380  	78.781640 
3574.952258  	78.885024 
3576.389136  	79.112324 
3577.826014  	79.385904 
3579.262892  	79.573589 
3580.699770  	79.790700 
3582.136648  	80.004745 
3583.573525  	80.226889 
3585.010403  	80.373298 
3586.447281  	80.406264 
3587.884159  	80.574754 
3589.321037  	80.856606 
3590.757915  	81.131488 
3592.194793  	81.361722 
3593.631671  	81.406213 
3595.068549  	81.493389 
3596.505427  	81.725904 
3597.942305  	81.889915 
3599.379183  	82.126025 
3600.816060  	82.435183 
3602.252938  	82.678087 
3603.689816  	82.838692 
3605.126694  	82.869064 
3606.563572  	82.935343 
3608.000450  	83.165380 
3609.437328  	83.450583 
3610.874206  	83.707993 
3612.311084  	83.827148 
3613.747962  	83.884556 
3615.184840  	83.989966 
3616.621718  	84.032932 
3618.058595  	84.205274 
3619.495473  	84.605879 
3620.932351  	84.904498 
3622.369229  	85.109057 
3623.806107  	85.248661 
3625.242985  	85.275163 
3626.679863  	85.330596 
3628.116741  	85.437853 
3629.553619  	85.692532 
3630.990497  	86.081919 
3632.427375  	86.280484 
3633.864253  	86.459868 
3635.301130  	86.596141 
3636.738008  	86.716113 
3638.174886  	86.986358 
3639.611764  	87.352507 
3641.048642  	87.702837 
3642.485520  	87.930996 
3643.922398  	88.041360 
3645.359276  	88.211286 
3646.796154  	88.284329 
3648.233032  	88.305992 
3649.669910  	88.711878 
3651.106788  	89.104729 
3652.543665  	89.346955 
3653.980543  	89.640569 
3655.417421  	89.811613 
3656.854299  	89.912337 
3658.291177  	90.232238 
3659.728055  	90.635580 
3661.164933  	91.024753 
3662.601811  	91.291491 
3664.038689  	91.432381 
3665.475567  	91.582201 
3666.912445  	91.768413 
3668.349323  	91.941892 
3669.786200  	92.165897 
3671.223078  	92.579977 
3672.659956  	92.884292 
3674.096834  	92.999587 
3675.533712  	93.074955 
3676.970590  	93.295746 
3678.407468  	93.586051 
3679.844346  	93.854041 
3681.281224  	94.046061 
3682.718102  	94.254920 
3684.154980  	94.429951 
3685.591858  	94.515845 
3687.028735  	94.596326 
3688.465613  	94.743508 
3689.902491  	94.812863 
3691.339369  	94.871793 
3692.776247  	95.022892 
3694.213125  	95.159172 
3695.650003  	95.215026 
3697.086881  	95.237276 
3698.523759  	95.377604 
3699.960637  	95.548864 
3701.397515  	95.615778 
3702.834393  	95.701871 
3704.271270  	95.728904 
3705.708148  	95.845475 
3707.145026  	96.050932 
3708.581904  	96.045887 
3710.018782  	96.086293 
3711.455660  	96.177243 
3712.892538  	95.937449 
3714.329416  	96.024436 
3715.766294  	96.336213 
3717.203172  	96.344037 
3718.640050  	96.259206 
3720.076928  	96.243671 
3721.513805  	96.199532 
3722.950683  	96.282289 
3724.387561  	96.363580 
3725.824439  	96.313899 
3727.261317  	96.341439 
3728.698195  	96.372402 
3730.135073  	96.392250 
3731.571951  	96.533678 
3733.008829  	96.794671 
3734.445707  	96.606124 
3735.882585  	96.411064 
3737.319463  	96.445417 
3738.756340  	96.578199 
3740.193218  	96.631857 
3741.630096  	96.728108 
3743.066974  	96.828638 
3744.503852  	96.795644 
3745.940730  	96.653300 
3747.377608  	96.694770 
3748.814486  	96.835919 
3750.251364  	96.934120 
3751.688242  	96.904259 
3753.125120  	96.914959 
3754.561998  	97.003776 
3755.998875  	97.039854 
3757.435753  	97.053264 
3758.872631  	97.064854 
3760.309509  	97.086972 
3761.746387  	97.083624 
3763.183265  	97.132245 
3764.620143  	97.208570 
3766.057021  	97.236234 
3767.493899  	97.299668 
3768.930777  	97.350240 
3770.367655  	97.303579 
3771.804533  	97.357733 
3773.241411  	97.433810 
3774.678288  	97.408531 
3776.115166  	97.397926 
3777.552044  	97.385693 
3778.988922  	97.242236 
3780.425800  	97.223064 
3781.862678  	97.364035 
3783.299556  	97.465754 
3784.736434  	97.510627 
3786.173312  	97.502467 
3787.610190  	97.538671 
3789.047068  	97.562804 
3790.483946  	97.514991 
3791.920823  	97.526419 
3793.357701  	97.552781 
3794.794579  	97.522015 
3796.231457  	97.460114 
3797.668335  	97.385660 
3799.105213  	97.416906 
3800.542091  	97.526648 
3801.978969  	97.537513 
3803.415847  	97.577216 
3804.852725  	97.723703 
3806.289603  	97.776857 
3807.726481  	97.611592 
3809.163358  	97.587632 
3810.600236  	97.683383 
3812.037114  	97.631954 
3813.473992  	97.575503 
3814.910870  	97.717794 
3816.347748  	97.765678 
3817.784626  	97.587534 
3819.221504  	97.633269 
3820.658382  	97.760540 
3822.095260  	97.664564 
3823.532138  	97.600422 
3824.969016  	97.722943 
3826.405893  	97.788216 
3827.842771  	97.717244 
3829.279649  	97.659027 
3830.716527  	97.626163 
3832.153405  	97.517024 
3833.590283  	97.531832 
3835.027161  	97.722571 
3836.464039  	97.843271 
3837.900917  	97.795569 
3839.337795  	97.707586 
3840.774673  	97.694936 
3842.211551  	97.708718 
3843.648428  	97.725169 
3845.085306  	97.744425 
3846.522184  	97.729906 
3847.959062  	97.673567 
3849.395940  	97.556878 
3850.832818  	97.493689 
3852.269696  	97.563204 
3853.706574  	97.669959 
3855.143452  	97.636168 
3856.580330  	97.608844 
3858.017208  	97.691262 
3859.454086  	97.771892 
3860.890963  	97.696765 
3862.327841  	97.533292 
3863.764719  	97.544811 
3865.201597  	97.618179 
3866.638475  	97.546103 
3868.075353  	97.561422 
3869.512231  	97.620189 
3870.949109  	97.522516 
3872.385987  	97.569455 
3873.822865  	97.742428 
3875.259743  	97.846663 
3876.696621  	97.856472 
3878.133498  	97.821742 
3879.570376  	97.648508 
3881.007254  	97.368636 
3882.444132  	97.371241 
3883.881010  	97.590738 
3885.317888  	97.605630 
3886.754766  	97.454554 
3888.191644  	97.580647 
3889.628522  	97.666699 
3891.065400  	97.538804 
3892.502278  	97.516819 
3893.939156  	97.683980 
3895.376033  	97.786169 
3896.812911  	97.763552 
3898.249789  	97.614195 
3899.686667  	97.442772 
3901.123545  	97.374026 
3902.560423  	97.351653 
3903.997301  	97.404873 
3905.434179  	97.585634 
3906.871057  	97.679012 
3908.307935  	97.635190 
3909.744813  	97.603659 
3911.181691  	97.635102 
3912.618568  	97.683708 
3914.055446  	97.740405 
3915.492324  	97.708095 
3916.929202  	97.613353 
3918.366080  	97.549202 
3919.802958  	97.512279 
3921.239836  	97.567289 
3922.676714  	97.719733 
3924.113592  	97.769269 
3925.550470  	97.700026 
3926.987348  	97.678684 
3928.424226  	97.671192 
3929.861103  	97.659333 
3931.297981  	97.683871 
3932.734859  	97.667020 
3934.171737  	97.632177 
3935.608615  	97.663943 
3937.045493  	97.737313 
3938.482371  	97.744893 
3939.919249  	97.719806 
3941.356127  	97.684848 
3942.793005  	97.682220 
3944.229883  	97.691535 
3945.666761  	97.696254 
3947.103638  	97.679814 
3948.540516  	97.671971 
3949.977394  	97.678602 
3951.414272  	97.653445 
3952.851150  	97.614642 
3954.288028  	97.628148 
3955.724906  	97.709073 
3957.161784  	97.701429 
3958.598662  	97.704024 
3960.035540  	97.686051 
3961.472418  	97.686857 
3962.909296  	97.667987 
3964.346173  	97.710935 
3965.783051  	97.762225 
3967.219929  	97.710080 
3968.656807  	97.687841 
3970.093685  	97.740930 
3971.530563  	97.748505 
3972.967441  	97.740004 
3974.404319  	97.769578 
3975.841197  	97.815452 
3977.278075  	97.843598 
3978.714953  	97.828706 
3980.151831  	97.806611 
3981.588708  	97.793380 
3983.025586  	97.762483 
3984.462464  	97.709575 
3985.899342  	97.675276 
3987.336220  	97.722255 
3988.773098  	97.760168 
3990.209976  	97.719722 
3991.646854  	97.747317 
3993.083732  	97.801181 
3994.520610  	97.765808 
3995.957488  	97.776240 
3997.394366  	97.812777 
3998.831244  	97.767325 
4000.268121  	97.765442 